Polarization of Light 'Brewsters' Data File Wed, Nov 19, 2025 7:34 PM
Sensor Position (Degrees)	Light Intensity (Volts)
180.00000	0.22069
180.00000	0.21264
180.00000	0.21554
180.00000	0.21328
180.00000	0.21054
180.00000	0.20812
180.01667	0.20716
180.01667	0.21119
180.01667	0.21151
180.01667	0.20345
180.01667	0.19427
180.01667	0.17816
180.01667	0.16688
180.01667	0.16334
180.00000	0.17332
179.96667	0.19121
179.88333	0.20619
179.75000	0.21006
179.66667	0.20410
179.65000	0.20087
179.63333	0.20764
179.63333	0.21215
179.58333	0.21215
179.53333	0.20925
179.45000	0.21392
179.40000	0.21135
179.36667	0.21102
179.33333	0.21183
179.30000	0.20716
179.28333	0.20539
179.26667	0.21086
179.25000	0.20667
179.23333	0.20522
179.20000	0.20458
179.15000	0.20539
179.11667	0.20458
179.06667	0.20651
179.05000	0.20426
179.00000	0.20957
178.93333	0.20635
178.88333	0.20587
178.80000	0.20764
178.66667	0.20184
178.55000	0.20297
178.50000	0.20136
178.43333	0.20345
178.40000	0.19556
178.33333	0.20877
178.26667	0.20764
178.18333	0.20120
178.08333	0.19942
178.01667	0.19717
177.98333	0.20635
177.95000	0.20216
177.91667	0.20120
177.90000	0.20603
177.88333	0.20232
177.85000	0.20265
177.81667	0.20265
177.78333	0.20394
177.75000	0.19685
177.71667	0.19588
177.68333	0.20313
177.63333	0.19652
177.56667	0.20200
177.50000	0.19878
177.46667	0.19797
177.43333	0.19749
177.38333	0.19846
177.31667	0.19991
177.21667	0.20281
177.13333	0.20200
177.10000	0.19507
177.06667	0.19572
177.03333	0.19652
176.95000	0.19846
176.85000	0.19298
176.73333	0.19975
176.63333	0.20281
176.56667	0.19669
176.53333	0.19250
176.50000	0.20023
176.48333	0.19669
176.48333	0.19991
176.46667	0.19942
176.46667	0.19765
176.45000	0.19572
176.41667	0.20377
176.36667	0.20281
176.31667	0.19942
176.28333	0.19926
176.26667	0.20184
176.26667	0.20055
176.26667	0.19781
176.26667	0.19701
176.25000	0.20184
176.23333	0.20168
176.21667	0.20667
176.20000	0.19636
176.15000	0.20281
176.06667	0.20055
176.00000	0.19427
175.91667	0.17510
175.86667	0.15899
175.83333	0.15512
175.81667	0.14851
175.78333	0.15383
175.75000	0.15319
175.68333	0.16801
175.63333	0.18041
175.55000	0.18380
175.50000	0.19540
175.46667	0.20104
175.43333	0.19669
175.38333	0.19959
175.33333	0.19942
175.25000	0.19652
175.18333	0.19524
175.10000	0.19604
175.05000	0.20329
175.00000	0.20055
174.96667	0.19395
174.91667	0.20200
174.85000	0.19572
174.78333	0.19185
174.68333	0.19765
174.60000	0.19491
174.48333	0.19137
174.38333	0.19040
174.26667	0.17349
174.23333	0.17961
174.21667	0.17687
174.20000	0.18041
174.18333	0.19362
174.16667	0.19669
174.10000	0.19169
173.95000	0.19507
173.88333	0.19395
173.85000	0.19298
173.83333	0.19572
173.80000	0.19411
173.76667	0.19443
173.73333	0.19524
173.63333	0.20023
173.56667	0.19362
173.50000	0.19282
173.45000	0.19427
173.38333	0.19089
173.31667	0.18766
173.25000	0.19346
173.20000	0.18992
173.16667	0.19411
173.10000	0.18847
173.00000	0.18557
172.90000	0.17800
172.81667	0.16350
172.73333	0.15544
172.68333	0.16430
172.65000	0.16060
172.63333	0.17735
172.63333	0.19008
172.63333	0.19362
172.63333	0.18589
172.61667	0.19008
172.61667	0.19491
172.58333	0.19572
172.56667	0.18815
172.56667	0.19234
172.56667	0.18186
172.56667	0.18364
172.55000	0.18525
172.55000	0.18138
172.55000	0.18879
172.51667	0.19443
172.43333	0.19105
172.31667	0.19475
172.23333	0.17316
172.15000	0.14465
172.06667	0.12918
172.01667	0.12290
171.96667	0.11581
171.91667	0.12048
171.88333	0.11629
171.86667	0.11275
171.86667	0.12644
171.83333	0.16044
171.80000	0.18251
171.68333	0.18944
171.56667	0.19266
171.46667	0.19314
171.35000	0.19089
171.23333	0.19298
171.15000	0.18380
171.06667	0.17542
171.03333	0.04443
171.00000	-0.00261
170.96667	0.18766
170.95000	0.02832
170.95000	-0.00068
170.93333	-0.00052
170.93333	0.16607
170.91667	0.18444
170.91667	0.18895
170.91667	0.18927
170.91667	0.19362
170.91667	0.18702
170.91667	0.18509
170.91667	0.18847
170.90000	0.18799
170.88333	0.19346
170.85000	0.18944
170.80000	0.19137
170.71667	0.19201
170.58333	0.18396
170.43333	0.19072
170.33333	0.18895
170.23333	0.18654
170.15000	0.19201
170.08333	0.18589
170.00000	0.18444
169.95000	0.18782
169.90000	0.18364
169.86667	0.19056
169.81667	0.18944
169.78333	0.19024
169.73333	0.18944
169.68333	0.18396
169.63333	0.18041
169.58333	0.17993
169.56667	0.18170
169.55000	0.18138
169.53333	0.18009
169.51667	0.18090
169.51667	0.18444
169.51667	0.18444
169.51667	0.18283
169.51667	0.18911
169.51667	0.18380
169.51667	0.18396
169.51667	0.18347
169.51667	0.18621
169.51667	0.17767
169.51667	0.17929
169.50000	0.18202
169.50000	0.18444
169.50000	0.18492
169.48333	0.18960
169.46667	0.17042
169.46667	0.18219
169.46667	0.18799
169.45000	0.16527
169.45000	0.12080
169.43333	0.00593
169.43333	0.00899
169.45000	0.00158
169.45000	-0.00229
169.45000	0.21054
169.45000	-0.00277
169.46667	0.24663
169.46667	0.18009
169.46667	-0.00100
169.46667	-0.00068
169.46667	0.18396
169.48333	0.19556
169.48333	0.18573
169.48333	0.17929
169.50000	0.19572
169.50000	0.19282
169.50000	0.19395
169.50000	0.19572
169.50000	0.19250
169.50000	0.17961
169.50000	0.16366
169.50000	0.17719
169.50000	0.18944
169.50000	0.19395
169.50000	0.18364
169.50000	0.18412
169.50000	0.18412
169.50000	0.17639
169.48333	0.18267
169.45000	0.18219
169.28333	0.18734
169.11667	0.18734
169.00000	0.18944
168.95000	0.18831
168.93333	0.18863
168.91667	0.17429
168.88333	0.16720
168.86667	0.16237
168.78333	0.16479
168.63333	0.17349
168.45000	0.18541
168.30000	0.18879
168.20000	0.18895
168.11667	0.18283
168.03333	0.18428
167.93333	0.19201
167.85000	0.18702
167.81667	0.18799
167.78333	0.18976
167.75000	0.17961
167.70000	0.17945
167.65000	0.18074
167.63333	0.18154
167.61667	0.19024
167.58333	0.18815
167.53333	0.18847
167.45000	0.18025
167.40000	0.18847
167.31667	0.18444
167.23333	0.17864
167.15000	0.16833
167.10000	0.17461
167.03333	0.18686
166.96667	0.18702
166.88333	0.18621
166.76667	0.17961
166.65000	0.18444
166.55000	0.17735
166.41667	0.17622
166.30000	0.16495
166.21667	0.16656
166.18333	0.17252
166.16667	0.17977
166.15000	0.17848
166.11667	0.17800
166.10000	0.18380
166.08333	0.18219
166.05000	0.17848
166.01667	0.17961
166.00000	0.17816
165.98333	0.18428
165.96667	0.18364
165.96667	0.18396
165.96667	0.17719
165.96667	0.17816
165.96667	0.17590
165.96667	0.16656
165.96667	0.16253
165.96667	0.16253
165.96667	0.15560
165.95000	0.16462
165.95000	0.16350
165.95000	0.16366
165.95000	0.16172
165.93333	0.15689
165.86667	0.16092
165.80000	0.15786
165.76667	0.16044
165.75000	0.15721
165.71667	0.15512
165.66667	0.16736
165.61667	0.17735
165.56667	0.18186
165.53333	0.17912
165.51667	0.18380
165.51667	0.18380
165.50000	0.17542
165.50000	0.18428
165.50000	0.17429
165.50000	0.18202
165.48333	0.17784
165.48333	0.17896
165.48333	0.18122
165.46667	0.18492
165.46667	0.17767
165.46667	0.17687
165.46667	0.15609
165.46667	0.15012
165.46667	0.15850
165.46667	0.15995
165.46667	0.16382
165.46667	0.16640
165.46667	0.16962
165.46667	0.16672
165.46667	0.15721
165.46667	0.16382
165.48333	0.18090
165.48333	0.17171
165.48333	0.17461
165.48333	0.17236
165.48333	0.16527
165.48333	0.16785
165.48333	0.17574
165.48333	0.16688
165.48333	0.17413
165.48333	0.16785
165.48333	0.13707
165.48333	0.11855
165.48333	0.10775
165.48333	0.11677
165.48333	0.15947
165.48333	0.16269
165.48333	0.16044
165.48333	0.17896
165.50000	0.17735
165.50000	0.18315
165.50000	0.17896
165.50000	0.17155
165.50000	0.17993
165.48333	0.18057
165.48333	0.18106
165.48333	0.18090
165.48333	0.18009
165.48333	0.18074
165.48333	0.17719
165.46667	0.18654
165.43333	0.18170
165.35000	0.17542
165.23333	0.15157
165.08333	0.11710
165.03333	0.12886
165.03333	0.14738
165.01667	0.15882
164.98333	0.15576
164.91667	0.15979
164.83333	0.16881
164.76667	0.17091
164.68333	0.16769
164.60000	0.16430
164.53333	0.16301
164.48333	0.16785
164.43333	0.16446
164.38333	0.16156
164.30000	0.16124
164.21667	0.15029
164.10000	0.15351
163.96667	0.14996
163.86667	0.13305
163.81667	0.13546
163.78333	0.15302
163.76667	0.17671
163.73333	0.17622
163.68333	0.17784
163.65000	0.17655
163.60000	0.18170
163.55000	0.17558
163.51667	0.17494
163.50000	0.17445
163.46667	0.17558
163.45000	0.17204
163.43333	0.17042
163.36667	0.17220
163.30000	0.17252
163.21667	0.17059
163.13333	0.16688
163.06667	0.16720
163.00000	0.16704
162.93333	0.16930
162.85000	0.16285
162.80000	0.16640
162.75000	0.15979
162.71667	0.15882
162.70000	0.15029
162.68333	0.15786
162.65000	0.14658
162.58333	0.14368
162.40000	0.12386
162.20000	0.10662
162.11667	0.09760
162.10000	0.10292
162.10000	0.11420
162.10000	0.14062
162.10000	0.15882
162.10000	0.16720
162.10000	0.16414
162.10000	0.16833
162.10000	0.17139
162.10000	0.16881
162.10000	0.17349
162.08333	0.17026
162.06667	0.17751
162.03333	0.17026
161.95000	0.17042
161.88333	0.16704
161.81667	0.16253
161.75000	0.16495
161.66667	0.15963
161.65000	0.16221
161.61667	0.15544
161.58333	0.15818
161.56667	0.15141
161.56667	0.15109
161.56667	0.16350
161.55000	0.16430
161.55000	0.17268
161.55000	0.16285
161.55000	0.16317
161.51667	0.16962
161.45000	0.16511
161.35000	0.17751
161.30000	0.16575
161.26667	0.17187
161.26667	0.17622
161.25000	0.17075
161.23333	0.16849
161.21667	0.17155
161.21667	0.17155
161.21667	0.17332
161.20000	0.17155
161.20000	0.17687
161.20000	0.17574
161.20000	0.17397
161.20000	0.17848
161.18333	0.17204
161.16667	0.17912
161.08333	0.17445
161.00000	0.18186
160.91667	0.17413
160.88333	0.16865
160.85000	0.17671
160.80000	0.17558
160.75000	0.18267
160.66667	0.17558
160.51667	0.16495
160.43333	0.15367
160.38333	0.15302
160.36667	0.15496
160.35000	0.16092
160.33333	0.16237
160.33333	0.17075
160.31667	0.17042
160.31667	0.17397
160.31667	0.17204
160.31667	0.16736
160.30000	0.17365
160.30000	0.16624
160.30000	0.17091
160.30000	0.17558
160.30000	0.17461
160.28333	0.17059
160.25000	0.17042
160.23333	0.16962
160.23333	0.16656
160.21667	0.17155
160.21667	0.16946
160.20000	0.16607
160.18333	0.17429
160.16667	0.16978
160.13333	0.17445
160.11667	0.17365
160.06667	0.16994
160.03333	0.17075
160.00000	0.17429
159.96667	0.17687
159.93333	0.16607
159.85000	0.16607
159.73333	0.17349
159.61667	0.16688
159.53333	0.17155
159.46667	0.17220
159.40000	0.16720
159.33333	0.16672
159.28333	0.17171
159.25000	0.17059
159.23333	0.16994
159.23333	0.16462
159.23333	0.16495
159.21667	0.16946
159.20000	0.16656
159.20000	0.16607
159.18333	0.16720
159.18333	0.16914
159.18333	0.16833
159.16667	0.17445
159.16667	0.17042
159.16667	0.16430
159.16667	0.17252
159.16667	0.16914
159.16667	0.16865
159.16667	0.16607
159.16667	0.15480
159.16667	0.15286
159.16667	0.16382
159.16667	0.17026
159.16667	0.16914
159.16667	0.17381
159.16667	0.16833
159.16667	0.16495
159.16667	0.16817
159.16667	0.16736
159.16667	0.17075
159.16667	0.16785
159.16667	0.17075
159.16667	0.14819
159.16667	0.04830
159.16667	0.01914
159.16667	-0.00325
159.16667	-0.00132
159.16667	0.11258
159.16667	-0.00277
159.16667	0.01882
159.16667	-0.00197
159.16667	0.00093
159.16667	0.11468
159.16667	-0.00438
159.16667	0.02542
159.16667	0.16414
159.16667	-0.00084
159.16667	-0.00068
159.16667	0.02510
159.18333	-0.00712
159.18333	0.04460
159.18333	0.15190
159.18333	-0.00068
159.18333	-0.00084
159.18333	0.16011
159.18333	0.16543
159.18333	0.16994
159.18333	0.14916
159.18333	0.15866
159.18333	0.16946
159.18333	0.16140
159.18333	0.15866
159.18333	0.15963
159.18333	0.16334
159.20000	0.16430
159.20000	0.15899
159.20000	0.16334
159.20000	0.15302
159.20000	0.15464
159.20000	0.16769
159.20000	0.16092
159.20000	0.16495
159.18333	0.17445
159.18333	0.17010
159.18333	0.17026
159.18333	0.16833
159.18333	0.17429
159.18333	0.17123
159.18333	0.17429
159.18333	0.16817
159.18333	0.16656
159.18333	0.16559
159.18333	0.17316
159.13333	0.17445
158.86667	0.16720
158.65000	0.16479
158.60000	0.16527
158.58333	0.16946
158.58333	0.16769
158.58333	0.16785
158.56667	0.16672
158.48333	0.16543
158.36667	0.15979
158.25000	0.16591
158.13333	0.16736
158.01667	0.15882
157.86667	0.15077
157.73333	0.13256
157.68333	0.13433
157.63333	0.14030
157.58333	0.13643
157.55000	0.14271
157.50000	0.15061
157.45000	0.15609
157.38333	0.16237
157.25000	0.15882
157.11667	0.15286
157.00000	0.15818
156.95000	0.15609
156.90000	0.14787
156.83333	0.14867
156.78333	0.14320
156.76667	0.15480
156.75000	0.15673
156.75000	0.16092
156.75000	0.16382
156.75000	0.16398
156.75000	0.16688
156.75000	0.16317
156.75000	0.16559
156.75000	0.16172
156.75000	0.16044
156.73333	0.16108
156.73333	0.16446
156.71667	0.16076
156.71667	0.15915
156.70000	0.16237
156.66667	0.15721
156.63333	0.16398
156.60000	0.16124
156.53333	0.15415
156.45000	0.15931
156.36667	0.16221
156.31667	0.16092
156.30000	0.16382
156.26667	0.15818
156.23333	0.16269
156.18333	0.15915
156.11667	0.15866
156.06667	0.15609
155.96667	0.15721
155.86667	0.15157
155.78333	0.15383
155.66667	0.14803
155.58333	0.14191
155.53333	0.14239
155.51667	0.14497
155.51667	0.15045
155.51667	0.15319
155.48333	0.14626
155.43333	0.14755
155.41667	0.15109
155.40000	0.15609
155.38333	0.15528
155.38333	0.15415
155.38333	0.15399
155.36667	0.15335
155.35000	0.15302
155.31667	0.15157
155.28333	0.15802
155.26667	0.15109
155.23333	0.15141
155.16667	0.15963
155.11667	0.14803
155.08333	0.15915
155.05000	0.15544
155.01667	0.15657
155.01667	0.15689
155.00000	0.15609
155.00000	0.15786
154.98333	0.16108
154.95000	0.15206
154.93333	0.15431
154.91667	0.15351
154.86667	0.16156
154.80000	0.15609
154.73333	0.15592
154.65000	0.15464
154.55000	0.15125
154.50000	0.14577
154.46667	0.15254
154.45000	0.14964
154.43333	0.15770
154.43333	0.15447
154.41667	0.15512
154.40000	0.15802
154.36667	0.15818
154.33333	0.15673
154.28333	0.15786
154.26667	0.15383
154.25000	0.15480
154.23333	0.15254
154.21667	0.15447
154.21667	0.16140
154.20000	0.15802
154.15000	0.15609
154.08333	0.15754
153.96667	0.15899
153.88333	0.15915
153.81667	0.15721
153.80000	0.15705
153.78333	0.15496
153.76667	0.15786
153.75000	0.15012
153.75000	0.15592
153.75000	0.15576
153.73333	0.15673
153.71667	0.14996
153.71667	0.16044
153.70000	0.15560
153.68333	0.15560
153.68333	0.15238
153.68333	0.15850
153.68333	0.15995
153.66667	0.16108
153.66667	0.15979
153.65000	0.15190
153.61667	0.15496
153.60000	0.15673
153.58333	0.15995
153.56667	0.15754
153.51667	0.15190
153.41667	0.15737
153.31667	0.15367
153.26667	0.15721
153.25000	0.15157
153.25000	0.15641
153.25000	0.15770
153.25000	0.15576
153.25000	0.15963
153.25000	0.15544
153.21667	0.15061
153.16667	0.15641
153.05000	0.15109
152.95000	0.15367
152.88333	0.15544
152.85000	0.15125
152.80000	0.15705
152.76667	0.15222
152.73333	0.15125
152.71667	0.14835
152.68333	0.15560
152.65000	0.15238
152.63333	0.15544
152.61667	0.15673
152.60000	0.15592
152.53333	0.15093
152.45000	0.15464
152.36667	0.15673
152.31667	0.15383
152.30000	0.15544
152.28333	0.15174
152.26667	0.15270
152.23333	0.15705
152.20000	0.14996
152.15000	0.14884
152.11667	0.14916
152.10000	0.15399
152.08333	0.15093
152.05000	0.14642
152.05000	0.15431
152.03333	0.15464
152.01667	0.15673
152.00000	0.15302
151.98333	0.15480
151.95000	0.15319
151.93333	0.15174
151.90000	0.14529
151.86667	0.15222
151.85000	0.15270
151.83333	0.15415
151.78333	0.15609
151.68333	0.15319
151.58333	0.15125
151.51667	0.14626
151.43333	0.14013
151.38333	0.14320
151.31667	0.13901
151.25000	0.14384
151.20000	0.14416
151.13333	0.14046
151.08333	0.13756
151.05000	0.14771
151.01667	0.15125
151.01667	0.14803
151.00000	0.15012
151.00000	0.14932
151.00000	0.15141
151.00000	0.14900
151.00000	0.14561
150.98333	0.15270
150.98333	0.14964
150.96667	0.14577
150.96667	0.14126
150.95000	0.14094
150.95000	0.14690
150.95000	0.15093
150.95000	0.15302
150.95000	0.14755
150.95000	0.14916
150.95000	0.15190
150.95000	0.15609
150.95000	0.14996
150.95000	0.15625
150.95000	0.15447
150.96667	0.15367
150.96667	0.15190
150.95000	0.15125
150.95000	0.15045
150.95000	0.15496
150.95000	0.15818
150.90000	0.15464
150.78333	0.14996
150.73333	0.15544
150.71667	0.15431
150.70000	0.15560
150.70000	0.14964
150.70000	0.15496
150.68333	0.15431
150.68333	0.14658
150.65000	0.13981
150.61667	0.13160
150.55000	0.13143
150.50000	0.13143
150.41667	0.12145
150.35000	0.12128
150.30000	0.12950
150.23333	0.11903
150.10000	0.11355
149.96667	0.09696
149.88333	0.09905
149.75000	0.10485
149.60000	0.09841
149.50000	0.10388
149.45000	0.10582
149.43333	0.12660
149.41667	0.12322
149.38333	0.13417
149.36667	0.12902
149.35000	0.12402
149.33333	0.12676
149.33333	0.13401
149.31667	0.12966
149.31667	0.14465
149.31667	0.14771
149.31667	0.14561
149.31667	0.14610
149.31667	0.14706
149.31667	0.14996
149.31667	0.14722
149.31667	0.14706
149.31667	0.14142
149.31667	0.14513
149.31667	0.15157
149.31667	0.15125
149.31667	0.14755
149.31667	0.14658
149.30000	0.14884
149.20000	0.14561
149.10000	0.14626
149.01667	0.14175
148.98333	0.14400
148.96667	0.13804
148.96667	0.14046
148.96667	0.14626
148.96667	0.14416
148.96667	0.14690
148.95000	0.15109
148.95000	0.14432
148.95000	0.14320
148.95000	0.15109
148.93333	0.14320
148.93333	0.13981
148.90000	0.14287
148.83333	0.14320
148.78333	0.14287
148.73333	0.14352
148.70000	0.14303
148.66667	0.14964
148.65000	0.13965
148.61667	0.14674
148.58333	0.14674
148.56667	0.14593
148.55000	0.14239
148.51667	0.14706
148.48333	0.14819
148.46667	0.14593
148.45000	0.14529
148.45000	0.13868
148.45000	0.14658
148.45000	0.14577
148.45000	0.14239
148.45000	0.14948
148.45000	0.14481
148.45000	0.13740
148.45000	0.12902
148.45000	0.13240
148.45000	0.13256
148.45000	0.14384
148.45000	0.08471
148.45000	0.02494
148.45000	0.01737
148.45000	0.03219
148.45000	0.03509
148.46667	0.03380
148.46667	0.03944
148.46667	0.06683
148.46667	0.11871
148.46667	0.14207
148.46667	0.14384
148.46667	0.14674
148.46667	0.14126
148.46667	0.15093
148.46667	0.14400
148.46667	0.13917
148.46667	0.14900
148.46667	0.14142
148.45000	0.11516
148.45000	0.04798
148.45000	0.07778
148.45000	0.09132
148.45000	0.12241
148.45000	0.12886
148.45000	0.13901
148.45000	0.14110
148.45000	0.14416
148.45000	0.14690
148.45000	0.14110
148.45000	0.14481
148.43333	0.14400
148.43333	0.14497
148.41667	0.14303
148.38333	0.14352
148.35000	0.14303
148.26667	0.13997
147.96667	0.14481
147.75000	0.13498
147.56667	0.12580
147.40000	0.11403
147.30000	0.11001
147.26667	0.11355
147.26667	0.12757
147.25000	0.13756
147.21667	0.14142
147.16667	0.14303
147.10000	0.13546
147.06667	0.14013
147.05000	0.13562
147.05000	0.13756
147.05000	0.13901
147.03333	0.13450
147.01667	0.13885
147.00000	0.14110
146.98333	0.13933
146.95000	0.13337
146.88333	0.13820
146.78333	0.14110
146.70000	0.13272
146.61667	0.13031
146.56667	0.13740
146.53333	0.13401
146.50000	0.13675
146.46667	0.15061
146.43333	0.14320
146.40000	0.14046
146.35000	0.13466
146.28333	0.13707
146.23333	0.13015
146.16667	0.12789
146.11667	0.13208
146.05000	0.12708
146.01667	0.13160
145.98333	0.13176
145.95000	0.12870
145.93333	0.12902
145.91667	0.13272
145.90000	0.13691
145.90000	0.13288
145.90000	0.13369
145.88333	0.12934
145.86667	0.12982
145.86667	0.13095
145.85000	0.13836
145.85000	0.13691
145.81667	0.13385
145.80000	0.13417
145.76667	0.12193
145.73333	0.12628
145.66667	0.11967
145.58333	0.12370
145.51667	0.13176
145.45000	0.12676
145.38333	0.12757
145.33333	0.11871
145.26667	0.11838
145.20000	0.12676
145.13333	0.13288
145.06667	0.13433
145.01667	0.13401
144.98333	0.13385
144.93333	0.12870
144.91667	0.13578
144.88333	0.13160
144.85000	0.13627
144.83333	0.13143
144.83333	0.13433
144.81667	0.12805
144.80000	0.12676
144.78333	0.13031
144.78333	0.12290
144.78333	0.12725
144.78333	0.11726
144.78333	0.12193
144.76667	0.12273
144.75000	0.12032
144.71667	0.12402
144.70000	0.12273
144.66667	0.12257
144.66667	0.12418
144.65000	0.12531
144.63333	0.12499
144.63333	0.12612
144.63333	0.12692
144.61667	0.12676
144.61667	0.12918
144.60000	0.12467
144.58333	0.12596
144.58333	0.12354
144.56667	0.12982
144.56667	0.12515
144.56667	0.13208
144.56667	0.13385
144.56667	0.13047
144.56667	0.13417
144.56667	0.13240
144.56667	0.13643
144.56667	0.13305
144.56667	0.13015
144.56667	0.13063
144.55000	0.13337
144.55000	0.12998
144.53333	0.13127
144.50000	0.13127
144.48333	0.13288
144.45000	0.13562
144.43333	0.12741
144.41667	0.13595
144.40000	0.13111
144.38333	0.13514
144.36667	0.13192
144.35000	0.13176
144.30000	0.13192
144.25000	0.13063
144.15000	0.12531
144.03333	0.12660
143.95000	0.12644
143.88333	0.12322
143.83333	0.12982
143.78333	0.12580
143.73333	0.12531
143.68333	0.12547
143.65000	0.12418
143.63333	0.12064
143.61667	0.12306
143.60000	0.11951
143.56667	0.12257
143.53333	0.11951
143.50000	0.12451
143.48333	0.12338
143.45000	0.12547
143.40000	0.12370
143.36667	0.11710
143.31667	0.11806
143.26667	0.11291
143.20000	0.11017
143.13333	0.09953
143.06667	0.09309
143.01667	0.09696
142.98333	0.09212
142.96667	0.10227
142.96667	0.10324
142.96667	0.11258
142.96667	0.11693
142.96667	0.11581
142.96667	0.12467
142.95000	0.12177
142.95000	0.11887
142.95000	0.11822
142.95000	0.11484
142.93333	0.10840
142.93333	0.11484
142.93333	0.11001
142.93333	0.11178
142.93333	0.12016
142.93333	0.12080
142.93333	0.12000
142.93333	0.11645
142.93333	0.11838
142.93333	0.11371
142.93333	0.11871
142.93333	0.11420
142.91667	0.12161
142.91667	0.12418
142.91667	0.12306
142.91667	0.12193
142.90000	0.12177
142.88333	0.12531
142.81667	0.12016
142.73333	0.11855
142.66667	0.11677
142.61667	0.12000
142.56667	0.12161
142.51667	0.11838
142.46667	0.11242
142.41667	0.11291
142.36667	0.10115
142.35000	0.08230
142.35000	0.06055
142.35000	0.03122
142.35000	0.03702
142.35000	0.06860
142.35000	0.10437
142.36667	0.11371
142.36667	0.12209
142.36667	0.12273
142.36667	0.12290
142.36667	0.12096
142.36667	0.11565
142.36667	0.11339
142.36667	0.11597
142.36667	0.10276
142.36667	0.11033
142.36667	0.10856
142.36667	0.11371
142.36667	0.11967
142.36667	0.12080
142.36667	0.12209
142.36667	0.12112
142.36667	0.11742
142.35000	0.11822
142.35000	0.12112
142.35000	0.11822
142.30000	0.12660
142.21667	0.12064
142.11667	0.12483
142.06667	0.12064
142.01667	0.12563
141.96667	0.12612
141.90000	0.12016
141.83333	0.12435
141.75000	0.12177
141.66667	0.12145
141.58333	0.12016
141.48333	0.12580
141.40000	0.12257
141.35000	0.11629
141.31667	0.11871
141.26667	0.11838
141.21667	0.12225
141.15000	0.11677
141.06667	0.11371
140.98333	0.10791
140.90000	0.10566
140.83333	0.10920
140.78333	0.11242
140.73333	0.11903
140.66667	0.12000
140.58333	0.11774
140.51667	0.11822
140.43333	0.11887
140.36667	0.11420
140.31667	0.17413
140.26667	0.17671
140.21667	0.14432
140.15000	0.12064
140.06667	0.14932
140.00000	0.12902
139.91667	0.11452
139.83333	0.12386
139.75000	0.11275
139.71667	0.10501
139.70000	0.10872
139.70000	0.10759
139.70000	0.10840
139.70000	0.09116
139.68333	0.08439
139.68333	0.07682
139.68333	0.08310
139.68333	0.09196
139.68333	0.08938
139.70000	0.09744
139.70000	0.00754
139.70000	0.00754
139.70000	0.00400
139.70000	0.02591
139.70000	0.04766
139.70000	0.05281
139.70000	0.05845
139.70000	0.08230
139.70000	0.10711
139.70000	0.11742
139.70000	0.12322
139.70000	0.12145
139.70000	0.11307
139.70000	0.10050
139.70000	0.10356
139.70000	0.12177
139.70000	0.12451
139.70000	0.12306
139.70000	0.12322
139.70000	0.11806
139.70000	0.11613
139.70000	0.11710
139.70000	0.11790
139.70000	0.11838
139.68333	0.11887
139.66667	0.11951
139.63333	0.12016
139.60000	0.11194
139.56667	0.08616
139.53333	0.08471
139.46667	0.08777
139.36667	0.08068
139.26667	0.09422
139.16667	0.10179
139.10000	0.10872
138.98333	0.11194
138.86667	0.11500
138.80000	0.11500
138.71667	0.11516
138.65000	0.11194
138.60000	0.11452
138.53333	0.10888
138.45000	0.11887
138.38333	0.11355
138.31667	0.11548
138.25000	0.12048
138.21667	0.11420
138.20000	0.10920
138.18333	0.10066
138.16667	0.10163
138.15000	0.09792
138.15000	0.10356
138.13333	0.09518
138.13333	0.09792
138.13333	0.09841
138.13333	0.09663
138.13333	0.09953
138.13333	0.09905
138.11667	0.09825
138.10000	0.09728
138.10000	0.10292
138.06667	0.09986
138.01667	0.09599
137.98333	0.11097
137.95000	0.11258
137.90000	0.11532
137.86667	0.12418
137.80000	0.11275
137.75000	0.11146
137.70000	0.11162
137.66667	0.11339
137.63333	0.11049
137.63333	0.10840
137.63333	0.10968
137.63333	0.11693
137.61667	0.11323
137.61667	0.11065
137.61667	0.11420
137.60000	0.11742
137.60000	0.11581
137.60000	0.11758
137.58333	0.11935
137.56667	0.11532
137.51667	0.11049
137.45000	0.11581
137.38333	0.10968
137.33333	0.10340
137.31667	0.11130
137.30000	0.10888
137.28333	0.11033
137.25000	0.10405
137.21667	0.11081
137.20000	0.10904
137.18333	0.11468
137.16667	0.11130
137.13333	0.11226
137.11667	0.11210
137.08333	0.11307
137.05000	0.11097
137.00000	0.10678
136.95000	0.10856
136.86667	0.10324
136.80000	0.10614
136.71667	0.10227
136.66667	0.09567
136.63333	0.09760
136.61667	0.08826
136.60000	0.09422
136.60000	0.09132
136.60000	0.09261
136.60000	0.09953
136.60000	0.09696
136.60000	0.09970
136.60000	0.10324
136.60000	0.11307
136.60000	0.11258
136.60000	0.11452
136.60000	0.11935
136.60000	0.11484
136.60000	0.11710
136.60000	0.11420
136.58333	0.11484
136.58333	0.12354
136.56667	0.11291
136.53333	0.11871
136.50000	0.11516
136.48333	0.12064
136.43333	0.10872
136.35000	0.10711
136.25000	0.11049
136.13333	0.10469
136.03333	0.09744
135.95000	0.09357
135.90000	0.09792
135.86667	0.09277
135.81667	0.09502
135.75000	0.08842
135.68333	0.09293
135.63333	0.09373
135.58333	0.08777
135.55000	0.09535
135.51667	0.08858
135.46667	0.08858
135.43333	0.09132
135.43333	0.09228
135.41667	0.09100
135.41667	0.09341
135.41667	0.09245
135.41667	0.09422
135.41667	0.09148
135.41667	0.07730
135.41667	0.05990
135.41667	0.05668
135.43333	0.07795
135.43333	0.09873
135.43333	0.09083
135.43333	0.10018
135.43333	0.09921
135.43333	0.10227
135.43333	0.10485
135.43333	0.10550
135.43333	0.10034
135.43333	0.10646
135.43333	0.10533
135.43333	0.10743
135.43333	0.10952
135.43333	0.10791
135.43333	0.10260
135.41667	0.10388
135.41667	0.10437
135.41667	0.10260
135.40000	0.10243
135.40000	0.11323
135.38333	0.11275
135.38333	0.11468
135.38333	0.11597
135.38333	0.11339
135.38333	0.11210
135.38333	0.11210
135.38333	0.11323
135.38333	0.11403
135.38333	0.11113
135.38333	0.11113
135.36667	0.10985
135.31667	0.11742
135.20000	0.11291
134.98333	0.08681
134.88333	0.08197
134.86667	0.08197
134.83333	0.09003
134.78333	0.09035
134.71667	0.10582
134.63333	0.10856
134.56667	0.10517
134.43333	0.10372
134.30000	0.10115
134.21667	0.09696
134.15000	0.09760
134.10000	0.08938
134.06667	0.09390
134.03333	0.09406
134.00000	0.09212
133.93333	0.09680
133.86667	0.09712
133.80000	0.09583
133.75000	0.10002
133.66667	0.09293
133.58333	0.09438
133.46667	0.09212
133.35000	0.08890
133.23333	0.08262
133.13333	0.08165
133.03333	0.07472
132.95000	0.08020
132.90000	0.08101
132.85000	0.08262
132.80000	0.08906
132.76667	0.08842
132.71667	0.08971
132.68333	0.08600
132.63333	0.08906
132.58333	0.08874
132.50000	0.08310
132.45000	0.08020
132.38333	0.08068
132.31667	0.07650
132.26667	0.06151
132.25000	0.06731
132.25000	0.07456
132.25000	0.07778
132.25000	0.08101
132.25000	0.08826
132.25000	0.09100
132.25000	0.08616
132.25000	0.09067
132.25000	0.09551
132.23333	0.09454
132.18333	0.08681
132.11667	0.09116
132.06667	0.09422
132.05000	0.09454
132.03333	0.09583
132.03333	0.09132
132.01667	0.08922
132.01667	0.09857
132.01667	0.09680
132.01667	0.10163
132.01667	0.09953
132.01667	0.10356
132.01667	0.10082
132.01667	0.09760
132.01667	0.10131
132.01667	0.09857
132.03333	0.10469
132.03333	0.10662
132.03333	0.09486
132.03333	0.10002
132.03333	0.10421
132.03333	0.10340
132.03333	0.10550
132.03333	0.07859
132.03333	0.06731
132.03333	0.07424
132.03333	0.07488
132.03333	0.07650
132.03333	0.08246
132.03333	0.09083
132.03333	0.09245
132.03333	0.08777
132.03333	0.09245
132.03333	0.09180
132.03333	0.08858
132.03333	0.08632
132.03333	0.09293
132.03333	0.09067
132.03333	0.10211
132.03333	0.10211
132.03333	0.10646
132.03333	0.10614
132.03333	0.10211
132.03333	0.10098
132.03333	0.10082
132.03333	0.09953
132.03333	0.09003
132.03333	0.09148
132.03333	0.02478
132.03333	0.02462
132.03333	0.08906
132.03333	0.09228
132.03333	0.09551
132.01667	0.09486
132.01667	0.10034
132.01667	0.10179
132.01667	0.10421
132.01667	0.10437
132.01667	0.10856
132.01667	0.09905
132.01667	0.10501
132.01667	0.10614
132.00000	0.10163
131.96667	0.10759
131.90000	0.10195
131.81667	0.10324
131.71667	0.10727
131.58333	0.10743
131.48333	0.10195
131.40000	0.10356
131.33333	0.09825
131.28333	0.09647
131.25000	0.10147
131.20000	0.10098
131.16667	0.10050
131.10000	0.09905
131.03333	0.09792
130.98333	0.10018
130.96667	0.09792
130.95000	0.10002
130.93333	0.10517
130.91667	0.09857
130.90000	0.10533
130.85000	0.10115
130.81667	0.09631
130.76667	0.10147
130.71667	0.09535
130.65000	0.09889
130.55000	0.10211
130.41667	0.09390
130.30000	0.09728
130.21667	0.09325
130.20000	0.09422
130.20000	0.09696
130.18333	0.08938
130.18333	0.08955
130.16667	0.09067
130.13333	0.08826
130.10000	0.08052
130.08333	0.07585
130.06667	0.06715
130.05000	0.07263
130.05000	0.07940
130.05000	0.07392
130.03333	0.07923
130.03333	0.08407
130.03333	0.07891
130.01667	0.07343
130.00000	0.08085
129.96667	0.07698
129.91667	0.07343
129.88333	0.07714
129.83333	0.07569
129.78333	0.07811
129.75000	0.08584
129.70000	0.08165
129.65000	0.08713
129.58333	0.08584
129.51667	0.08568
129.46667	0.09325
129.41667	0.09696
129.40000	0.08793
129.36667	0.09196
129.33333	0.09422
129.28333	0.08938
129.25000	0.08906
129.21667	0.08358
129.20000	0.08971
129.18333	0.08648
129.18333	0.08938
129.16667	0.09212
129.16667	0.09293
129.15000	0.09228
129.15000	0.09196
129.15000	0.08793
129.15000	0.08777
129.13333	0.08503
129.13333	0.08713
129.11667	0.09083
129.11667	0.09051
129.10000	0.08987
129.10000	0.09148
129.08333	0.09390
129.05000	0.09228
129.01667	0.09325
128.96667	0.08632
128.93333	0.08085
128.91667	0.07988
128.91667	0.08375
128.91667	0.08213
128.91667	0.08697
128.90000	0.08600
128.90000	0.08890
128.88333	0.08874
128.85000	0.08858
128.80000	0.08697
128.75000	0.08278
128.70000	0.07859
128.66667	0.08600
128.65000	0.08874
128.63333	0.07343
128.61667	0.08068
128.60000	0.08294
128.58333	0.08068
128.56667	0.08584
128.53333	0.08326
128.51667	0.08874
128.48333	0.08149
128.45000	0.08423
128.38333	0.08052
128.33333	0.08358
128.30000	0.08536
128.26667	0.08391
128.23333	0.08487
128.20000	0.08568
128.15000	0.07891
128.08333	0.08085
128.01667	0.07295
127.96667	0.07392
127.90000	0.07134
127.83333	0.06908
127.78333	0.06860
127.73333	0.05926
127.68333	0.06006
127.66667	0.06151
127.65000	0.06522
127.63333	0.05716
127.61667	0.06409
127.60000	0.07456
127.58333	0.07505
127.58333	0.06812
127.58333	0.07843
127.56667	0.07472
127.56667	0.08085
127.56667	0.07650
127.56667	0.07295
127.56667	0.07778
127.56667	0.08085
127.56667	0.07714
127.56667	0.08375
127.56667	0.08246
127.56667	0.08407
127.56667	0.08375
127.55000	0.08600
127.55000	0.08536
127.55000	0.08600
127.53333	0.08858
127.51667	0.08455
127.50000	0.08423
127.48333	0.08810
127.46667	0.08826
127.45000	0.08326
127.41667	0.09067
127.40000	0.08020
127.36667	0.08810
127.33333	0.08632
127.30000	0.08278
127.26667	0.08761
127.21667	0.08487
127.15000	0.08681
127.06667	0.08278
126.98333	0.08584
126.91667	0.08568
126.85000	0.08133
126.81667	0.07923
126.80000	0.08085
126.78333	0.08423
126.78333	0.07891
126.76667	0.07343
126.76667	0.07521
126.76667	0.06602
126.75000	0.06538
126.73333	0.07569
126.71667	0.07762
126.70000	0.08036
126.68333	0.08294
126.66667	0.08181
126.65000	0.08230
126.63333	0.08117
126.63333	0.07698
126.60000	0.07698
126.58333	0.08004
126.55000	0.07843
126.51667	0.07601
126.48333	0.08262
126.45000	0.07698
126.40000	0.07601
126.33333	0.06925
126.28333	0.07891
126.21667	0.07456
126.15000	0.07360
126.11667	0.07827
126.05000	0.07940
125.98333	0.07843
125.90000	0.07247
125.81667	0.07392
125.71667	0.07311
125.65000	0.07392
125.58333	0.07376
125.55000	0.07279
125.50000	0.07215
125.43333	0.07569
125.36667	0.07166
125.30000	0.07118
125.26667	0.07198
125.23333	0.07585
125.20000	0.07650
125.20000	0.08101
125.20000	0.07392
125.18333	0.07633
125.18333	0.07086
125.16667	0.07682
125.16667	0.07811
125.16667	0.07392
125.15000	0.07086
125.15000	0.08004
125.15000	0.07311
125.15000	0.07488
125.16667	0.07730
125.16667	0.07569
125.18333	0.07891
125.18333	0.07247
125.18333	0.07859
125.20000	0.07940
125.20000	0.07746
125.20000	0.06860
125.20000	0.00400
125.20000	0.02413
125.20000	0.03090
125.20000	0.06183
125.20000	0.08149
125.20000	0.07956
125.20000	0.08036
125.20000	0.07537
125.20000	0.08181
125.20000	0.07682
125.20000	0.07327
125.20000	0.07408
125.20000	0.05942
125.20000	0.03138
125.20000	0.02091
125.20000	0.03155
125.20000	0.02575
125.20000	0.02204
125.20000	0.03155
125.20000	0.02446
125.20000	0.01141
125.21667	0.00980
125.21667	0.04750
125.21667	0.06635
125.21667	0.06941
125.21667	0.06973
125.21667	0.06763
125.20000	0.06473
125.20000	0.06683
125.20000	0.06683
125.20000	0.06860
125.20000	0.08052
125.20000	0.07617
125.20000	0.08004
125.20000	0.07923
125.20000	0.08246
125.20000	0.07666
125.20000	0.07376
125.20000	0.07424
125.20000	0.08294
125.18333	0.07730
125.18333	0.08101
125.18333	0.07859
125.18333	0.07601
125.16667	0.07778
125.16667	0.08101
125.16667	0.08004
125.16667	0.08085
125.13333	0.07102
125.06667	0.07279
124.96667	0.07585
124.88333	0.07424
124.78333	0.07956
124.65000	0.07376
124.55000	0.07730
124.46667	0.06763
124.38333	0.07118
124.33333	0.07376
124.26667	0.07376
124.23333	0.07263
124.20000	0.07505
124.16667	0.07456
124.13333	0.07505
124.08333	0.07633
124.01667	0.07005
123.93333	0.07102
123.85000	0.06973
123.80000	0.05926
123.73333	0.06506
123.65000	0.05813
123.56667	0.06280
123.51667	0.07198
123.46667	0.07134
123.41667	0.06506
123.36667	0.06635
123.31667	0.06618
123.28333	0.06280
123.25000	0.06763
123.21667	0.06409
123.18333	0.06635
123.15000	0.05990
123.11667	0.06747
123.06667	0.05797
123.03333	0.06167
123.00000	0.06328
122.96667	0.06232
122.95000	0.06119
122.95000	0.05861
122.95000	0.05877
122.93333	0.06183
122.91667	0.05748
122.90000	0.06280
122.88333	0.06490
122.86667	0.06457
122.86667	0.06860
122.85000	0.07005
122.81667	0.06828
122.80000	0.06908
122.76667	0.06667
122.71667	0.06135
122.65000	0.06151
122.56667	0.06055
122.48333	0.06022
122.43333	0.06087
122.41667	0.05781
122.40000	0.05765
122.36667	0.05410
122.31667	0.05168
122.26667	0.04862
122.23333	0.05555
122.20000	0.04895
122.18333	0.05668
122.18333	0.05974
122.18333	0.05732
122.18333	0.06248
122.18333	0.06167
122.18333	0.06409
122.18333	0.06506
122.18333	0.05990
122.18333	0.06796
122.18333	0.05668
122.16667	0.05716
122.16667	0.06232
122.16667	0.06457
122.15000	0.06167
122.13333	0.06892
122.11667	0.06377
122.08333	0.06570
122.03333	0.06022
122.00000	0.05974
121.96667	0.06570
121.90000	0.05603
121.86667	0.06683
121.85000	0.07166
121.80000	0.06812
121.73333	0.06425
121.68333	0.05748
121.63333	0.05942
121.56667	0.05797
121.51667	0.06570
121.45000	0.06457
121.35000	0.05926
121.28333	0.05829
121.23333	0.06071
121.18333	0.05942
121.13333	0.05748
121.08333	0.05378
121.03333	0.06457
120.98333	0.05652
120.95000	0.06103
120.91667	0.05893
120.86667	0.06232
120.81667	0.06022
120.75000	0.05491
120.70000	0.05732
120.66667	0.05684
120.63333	0.05861
120.58333	0.05507
120.55000	0.05410
120.51667	0.05330
120.48333	0.05652
120.45000	0.05748
120.43333	0.05313
120.40000	0.05700
120.38333	0.05523
120.36667	0.04685
120.35000	0.05523
120.31667	0.05603
120.30000	0.05233
120.28333	0.05491
120.28333	0.04605
120.26667	0.05636
120.26667	0.05636
120.26667	0.05458
120.26667	0.05023
120.26667	0.04685
120.25000	0.05152
120.25000	0.05249
120.23333	0.05378
120.23333	0.05652
120.21667	0.05781
120.18333	0.05088
120.13333	0.05297
120.08333	0.05475
120.05000	0.05732
120.00000	0.05281
119.96667	0.04943
119.90000	0.05555
119.83333	0.05249
119.76667	0.04363
119.71667	0.04637
119.70000	0.04846
119.68333	0.04411
119.66667	0.05040
119.65000	0.05088
119.61667	0.04846
119.60000	0.04669
119.58333	0.04895
119.56667	0.04621
119.55000	0.04637
119.53333	0.04717
119.51667	0.04782
119.48333	0.05152
119.46667	0.04508
119.43333	0.04846
119.40000	0.04991
119.36667	0.05249
119.35000	0.05104
119.33333	0.05346
119.31667	0.05104
119.30000	0.05394
119.26667	0.04846
119.25000	0.05136
119.20000	0.05507
119.16667	0.05007
119.11667	0.05136
119.08333	0.04846
119.06667	0.05523
119.05000	0.05201
119.03333	0.04492
119.03333	0.04701
119.01667	0.04315
119.01667	0.04170
119.00000	0.04637
119.00000	0.04862
119.00000	0.04395
119.00000	0.04443
119.00000	0.04492
119.00000	0.04460
118.98333	0.04443
118.98333	0.03992
118.98333	0.04991
118.98333	0.10968
118.96667	0.07408
118.96667	0.06860
118.95000	0.04766
118.93333	0.05475
118.91667	0.04298
118.90000	0.04572
118.88333	0.04266
118.88333	0.04685
118.88333	0.04701
118.88333	0.04315
118.86667	0.04460
118.86667	0.04701
118.86667	0.04331
118.85000	0.04943
118.83333	0.04766
118.81667	0.05072
118.80000	0.04508
118.78333	0.04331
118.71667	0.04943
118.66667	0.05281
118.61667	0.04733
118.55000	0.04927
118.50000	0.04331
118.45000	0.04476
118.40000	0.04395
118.36667	0.04878
118.33333	0.04395
118.28333	0.04814
118.23333	0.04395
118.18333	0.04540
118.13333	0.04153
118.10000	0.04137
118.06667	0.04476
118.03333	0.03928
118.03333	0.03638
118.01667	0.03847
118.01667	0.03718
118.00000	0.03960
118.00000	0.03976
117.98333	0.03992
117.98333	0.04218
117.96667	0.04202
117.96667	0.04508
117.96667	0.03702
117.96667	0.04298
117.96667	0.03928
117.96667	0.04347
117.95000	0.04089
117.95000	0.04041
117.93333	0.04025
117.91667	0.04492
117.91667	0.03654
117.91667	0.03493
117.91667	0.03364
117.91667	0.04186
117.91667	0.04153
117.91667	0.04379
117.91667	0.04862
117.91667	0.04282
117.91667	0.04395
117.91667	0.04057
117.91667	0.04202
117.91667	0.04588
117.91667	0.04669
117.91667	0.04669
117.91667	0.04395
117.91667	0.04750
117.91667	0.04782
117.91667	0.04427
117.91667	0.04572
117.91667	0.04846
117.91667	0.04572
117.91667	0.04588
117.91667	0.04669
117.91667	0.04943
117.91667	0.04395
117.91667	0.05104
117.91667	0.04556
117.91667	0.04685
117.91667	0.04572
117.91667	0.05394
117.90000	0.03928
117.85000	0.04685
117.78333	0.04750
117.73333	0.04411
117.70000	0.04588
117.63333	0.04556
117.58333	0.04137
117.51667	0.04733
117.45000	0.03960
117.38333	0.04170
117.30000	0.04315
117.23333	0.04685
117.18333	0.04460
117.15000	0.03992
117.11667	0.04347
117.08333	0.03960
117.05000	0.03847
117.00000	0.04008
116.96667	0.03831
116.93333	0.04443
116.90000	0.04057
116.86667	0.03992
116.81667	0.03735
116.76667	0.04492
116.71667	0.03847
116.70000	0.03976
116.66667	0.03880
116.65000	0.03863
116.65000	0.03783
116.65000	0.04153
116.63333	0.03654
116.63333	0.03767
116.63333	0.04025
116.61667	0.04057
116.60000	0.04202
116.56667	0.03654
116.50000	0.03670
116.45000	0.04186
116.40000	0.03992
116.38333	0.03976
116.36667	0.03815
116.36667	0.04202
116.35000	0.03557
116.35000	0.03718
116.35000	0.03638
116.33333	0.04008
116.31667	0.03831
116.28333	0.04153
116.26667	0.03718
116.23333	0.04025
116.16667	0.04218
116.08333	0.04153
116.01667	0.03992
115.93333	0.04121
115.83333	0.03815
115.76667	0.03912
115.70000	0.03477
115.65000	0.04137
115.63333	0.03751
115.60000	0.03976
115.58333	0.03735
115.55000	0.03477
115.53333	0.03235
115.51667	0.03316
115.48333	0.04105
115.45000	0.03638
115.41667	0.03718
115.35000	0.03912
115.30000	0.03203
115.25000	0.03718
115.21667	0.03058
115.20000	0.03718
115.18333	0.04008
115.16667	0.03155
115.15000	0.03364
115.11667	0.03412
115.06667	0.03042
115.03333	0.03525
115.00000	0.03090
114.96667	0.03477
114.95000	0.03187
114.93333	0.02413
114.93333	0.02510
114.91667	0.02736
114.91667	0.02848
114.90000	0.03235
114.90000	0.03606
114.90000	0.03090
114.90000	0.03010
114.90000	0.02913
114.91667	0.03799
114.91667	0.03525
114.91667	0.03010
114.91667	0.03767
114.91667	0.03251
114.91667	0.03654
114.91667	0.03493
114.91667	0.03573
114.91667	0.03010
114.91667	0.03122
114.91667	0.02446
114.91667	0.02961
114.91667	0.02156
114.91667	0.02542
114.91667	0.02381
114.91667	0.02510
114.91667	0.02558
114.91667	0.03557
114.91667	0.03235
114.91667	0.03541
114.91667	0.03155
114.91667	0.03316
114.91667	0.03412
114.91667	0.04379
114.91667	0.03332
114.90000	0.04105
114.90000	0.03944
114.88333	0.03090
114.86667	0.03477
114.86667	0.03106
114.85000	0.02848
114.81667	0.02881
114.75000	0.03348
114.68333	0.02703
114.66667	0.03364
114.65000	0.02204
114.63333	0.03171
114.60000	0.02752
114.53333	0.03718
114.46667	0.03316
114.36667	0.03541
114.25000	0.03251
114.16667	0.01995
114.10000	0.02043
114.05000	0.02687
114.03333	0.02478
113.98333	0.02881
113.93333	0.04073
113.90000	0.03235
113.86667	0.02848
113.85000	0.02929
113.83333	0.03155
113.81667	0.03090
113.80000	0.02575
113.78333	0.02703
113.65000	0.03122
113.43333	0.02897
113.31667	0.02575
113.28333	0.02913
113.25000	0.02156
113.21667	0.02720
113.20000	0.02494
113.16667	0.02510
113.13333	0.02510
113.10000	0.02913
113.06667	0.01978
113.03333	0.02655
113.00000	0.02993
112.98333	0.02800
112.96667	0.02703
112.95000	0.02703
112.91667	0.02413
112.88333	0.02591
112.83333	0.02623
112.76667	0.02107
112.68333	0.01930
112.66667	0.02027
112.65000	0.02607
112.63333	0.01801
112.63333	0.01753
112.60000	0.02462
112.51667	0.02011
112.40000	0.02075
112.26667	0.02268
112.15000	0.01914
112.08333	0.01898
111.98333	0.01141
111.86667	0.01447
111.73333	0.01495
111.61667	0.01108
111.55000	0.00899
111.48333	0.00899
111.43333	0.00915
111.41667	0.00835
111.41667	0.00238
111.41667	0.00351
111.41667	0.00641
111.41667	0.01060
111.41667	0.01479
111.41667	0.01769
111.41667	0.02011
111.41667	0.01850
111.40000	0.02107
111.40000	0.01721
111.40000	0.01769
111.40000	0.02091
111.40000	0.01785
111.40000	0.01447
111.40000	0.01672
111.40000	0.01721
111.40000	0.01479
111.40000	0.00706
111.40000	0.01672
111.40000	0.00561
111.40000	0.01769
111.40000	0.01431
111.40000	0.00931
111.40000	0.01334
111.40000	0.01914
111.40000	0.01366
111.40000	0.01785
111.40000	0.02172
111.41667	0.01608
111.41667	0.01688
111.41667	0.02156
111.41667	0.02381
111.41667	0.02317
111.41667	0.01850
111.41667	0.02494
111.41667	0.02204
111.41667	0.02397
111.40000	0.01672
111.40000	0.01656
111.40000	0.01962
111.40000	0.02381
111.38333	0.01705
111.36667	0.02091
111.28333	0.01576
111.20000	0.02252
111.13333	0.02413
111.05000	0.02140
111.01667	0.02091
110.98333	0.01721
110.95000	0.02107
110.91667	0.01560
110.88333	0.01608
110.86667	0.02188
110.83333	0.01962
110.80000	0.01495
110.76667	0.02172
110.71667	0.01608
110.68333	0.02123
110.66667	0.01656
110.63333	0.01624
110.61667	0.01398
110.56667	0.01866
110.53333	0.01270
110.51667	0.01592
110.48333	0.01366
110.48333	0.01592
110.46667	0.01785
110.45000	0.01624
110.45000	0.01769
110.43333	0.01302
110.43333	0.01882
110.43333	0.01350
110.41667	0.01527
110.41667	0.01914
110.41667	0.01431
110.41667	0.01882
110.41667	0.01850
110.41667	0.01366
110.40000	0.00818
110.40000	0.01560
110.38333	0.01753
110.38333	0.01060
110.36667	0.01125
110.35000	0.00899
110.33333	0.01028
110.31667	0.01092
110.31667	0.00883
110.30000	0.01286
110.28333	0.01978
110.26667	0.01801
110.21667	0.01705
110.16667	0.01833
110.11667	0.01721
110.08333	0.01511
110.06667	0.01656
110.05000	0.01463
110.03333	0.01801
110.01667	0.01801
109.96667	0.01334
109.93333	0.01398
109.88333	0.01640
109.83333	0.01012
109.78333	0.01415
109.75000	0.00931
109.70000	0.01334
109.65000	0.01270
109.60000	0.01060
109.58333	0.01270
109.55000	0.01173
109.53333	0.01608
109.50000	0.01028
109.48333	0.01205
109.45000	0.00786
109.41667	0.01382
109.38333	0.00802
109.35000	0.01253
109.31667	0.00996
109.28333	0.01221
109.26667	0.01511
109.23333	0.01092
109.20000	0.00319
109.18333	0.00867
109.16667	0.00802
109.16667	0.00238
109.15000	0.00561
109.13333	0.01334
109.11667	0.00883
109.11667	0.01237
109.10000	0.01431
109.10000	0.01060
109.10000	0.01076
109.10000	0.01672
109.10000	0.01044
109.10000	0.01463
109.10000	0.01012
109.08333	0.01157
109.08333	0.01447
109.08333	0.00786
109.10000	0.00899
109.10000	0.00867
109.10000	0.01350
109.10000	0.00657
109.10000	0.01447
109.10000	0.01205
109.10000	0.01108
109.10000	0.01189
109.10000	0.00512
109.10000	0.01398
109.10000	0.01141
109.10000	0.00238
109.10000	0.00464
109.10000	-0.00261
109.10000	0.00206
109.10000	-0.00019
109.10000	0.00110
109.10000	0.00818
109.10000	0.01205
109.10000	0.01447
109.10000	0.01125
109.10000	0.01608
109.10000	0.01141
109.10000	0.01431
109.10000	0.00883
109.10000	0.01044
109.10000	0.00690
109.10000	0.01028
109.10000	0.01044
109.10000	0.01076
109.10000	0.01060
109.10000	0.00754
109.10000	0.00963
109.10000	0.00400
109.10000	0.01092
109.10000	0.00641
109.10000	0.00915
109.10000	0.01028
109.10000	0.00593
109.10000	0.01334
109.10000	0.01060
109.10000	0.01366
109.10000	0.01076
109.10000	0.00528
109.10000	0.00802
109.10000	0.01302
109.10000	0.00851
109.06667	0.00706
108.86667	0.00657
108.71667	0.01076
108.66667	0.01141
108.63333	0.01076
108.58333	0.00899
108.53333	0.00464
108.50000	0.00851
108.43333	0.00722
108.33333	0.00625
108.20000	0.00625
108.10000	0.01141
108.00000	0.00641
107.91667	0.00464
107.83333	0.00255
107.78333	0.00496
107.73333	0.00577
107.68333	0.00786
107.66667	0.00496
107.63333	0.00931
107.60000	0.00271
107.55000	0.00351
107.51667	0.00464
107.45000	0.00690
107.40000	0.00287
107.35000	0.00963
107.30000	-0.00148
107.28333	0.00738
107.26667	0.00706
107.26667	0.00077
107.26667	0.00174
107.26667	0.00126
107.26667	0.00738
107.26667	0.00351
107.26667	-0.00019
107.26667	0.00351
107.26667	0.00561
107.26667	-0.00261
107.26667	0.00013
107.26667	0.00271
107.26667	0.00126
107.26667	0.00158
107.26667	0.00432
107.26667	0.00238
107.26667	0.00480
107.26667	0.00174
107.26667	0.00512
107.26667	0.00110
107.26667	0.00093
107.26667	-0.00100
107.26667	0.00174
107.28333	0.00512
107.28333	0.00190
107.28333	0.00690
107.28333	0.00561
107.28333	0.00528
107.28333	0.00077
107.28333	-0.00035
107.28333	0.00335
107.28333	0.00480
107.26667	0.00931
107.26667	0.00319
107.26667	0.00351
107.26667	0.00303
107.26667	0.00335
107.28333	0.00287
107.28333	0.00142
107.28333	0.01012
107.28333	-0.00213
107.26667	-0.00164
107.26667	0.00271
107.26667	0.00126
107.26667	0.00335
107.26667	-0.00454
107.26667	0.00464
107.26667	0.00496
107.26667	0.00222
107.26667	0.00528
107.25000	0.00061
107.23333	0.00673
107.16667	0.00093
107.05000	0.00947
106.93333	0.00464
106.85000	0.00351
106.80000	0.00496
106.75000	0.00158
106.71667	0.00222
106.68333	-0.00003
106.65000	0.00142
106.60000	0.00077
106.56667	-0.00197
106.53333	0.00222
106.48333	0.00077
106.43333	-0.00261
106.38333	-0.00035
106.30000	0.00545
106.20000	0.00142
106.16667	0.00206
106.15000	0.00158
106.13333	-0.00019
106.13333	0.00335
106.11667	-0.00084
106.11667	0.00110
106.06667	0.00271
106.00000	0.00013
105.95000	0.00287
105.93333	0.00029
105.91667	0.00142
105.90000	-0.00148
105.88333	0.00013
105.86667	0.00287
105.86667	0.00126
105.85000	-0.00180
105.83333	0.00480
105.80000	0.00335
105.78333	-0.00261
105.76667	-0.00003
105.73333	0.00351
105.70000	0.00093
105.66667	-0.00358
105.61667	0.00303
105.58333	-0.00293
105.55000	0.00061
105.51667	0.00271
105.50000	0.00222
105.48333	0.00174
105.46667	0.00126
105.46667	0.00093
105.46667	0.00255
105.45000	0.00383
105.45000	-0.00084
105.45000	0.00077
105.43333	0.00142
105.43333	0.00077
105.41667	0.00029
105.40000	0.00142
105.38333	0.00303
105.38333	0.00222
105.36667	0.00367
105.35000	-0.00003
105.33333	-0.00052
105.33333	0.00351
105.31667	-0.00019
105.31667	0.00303
105.28333	-0.00261
105.26667	0.00029
105.21667	0.00077
105.18333	0.00448
105.15000	0.00432
105.10000	-0.00132
105.08333	0.00093
105.03333	-0.00052
105.00000	0.00464
104.93333	0.00303
104.88333	0.00496
104.83333	-0.00245
104.78333	0.00061
104.73333	0.00416
104.70000	0.00287
104.68333	-0.00052
104.66667	0.00029
104.66667	0.00335
104.65000	0.00029
104.65000	0.00190
104.65000	-0.00084
104.65000	-0.00293
104.63333	-0.00180
104.63333	0.00335
104.63333	-0.00148
104.63333	0.00255
104.63333	0.00045
104.63333	0.00093
104.65000	0.00077
104.66667	-0.00519
104.66667	0.02188
104.68333	-0.00277
104.68333	0.02897
104.68333	-0.00245
104.68333	0.00029
104.68333	0.00142
104.68333	-0.00068
104.68333	-0.00100
104.68333	0.00238
104.68333	-0.00277
104.68333	0.00013
104.68333	0.00255
104.68333	-0.00068
104.68333	-0.00100
104.68333	0.00126
104.68333	-0.00035
104.68333	0.00238
104.68333	0.00222
104.68333	0.00319
104.68333	0.00174
104.68333	0.00061
104.70000	0.00271
104.70000	0.00400
104.70000	0.00206
104.70000	0.00174
104.70000	-0.00052
104.70000	0.00013
104.70000	0.00061
104.70000	0.00077
104.70000	0.00110
104.70000	0.00029
104.70000	-0.00084
104.70000	0.00158
104.70000	0.00013
104.70000	-0.00180
104.70000	0.00255
104.70000	0.00255
104.70000	0.00126
104.68333	-0.00164
104.68333	0.00287
104.68333	-0.00148
104.68333	0.00319
104.66667	-0.00116
104.66667	0.00432
104.66667	0.00528
104.65000	0.00480
104.63333	0.00174
104.55000	0.00367
104.46667	-0.00003
104.41667	0.00512
104.36667	-0.00003
104.31667	0.00690
104.26667	0.00045
104.25000	0.00303
104.23333	0.00351
104.23333	0.00255
104.23333	0.00432
104.23333	0.00013
104.23333	-0.00084
104.23333	0.00206
104.23333	-0.00213
104.23333	-0.00197
104.23333	0.00367
104.23333	-0.00229
104.23333	-0.00213
104.25000	-0.00148
104.25000	0.00222
104.25000	0.00222
104.25000	0.00029
104.25000	0.00126
104.25000	0.00029
104.25000	-0.00035
104.25000	0.00174
104.25000	0.00303
104.25000	-0.00052
104.25000	0.00367
104.25000	-0.00068
104.25000	0.00255
104.25000	0.00319
104.25000	0.00351
104.25000	0.00255
104.25000	0.00303
104.25000	0.00190
104.25000	0.00255
104.25000	0.00512
104.25000	0.00045
104.23333	0.00142
104.23333	-0.00213
104.23333	0.00061
104.21667	0.00416
104.20000	0.00142
104.16667	0.00448
104.11667	-0.00164
104.06667	0.00400
104.00000	0.00271
103.95000	0.00110
103.88333	0.00029
103.83333	0.00142
103.80000	0.00464
103.76667	0.00174
103.75000	-0.00068
103.73333	0.00351
103.70000	0.00222
103.66667	0.00174
103.61667	0.00416
103.55000	0.00061
103.48333	0.00335
103.43333	0.00448
103.38333	-0.00003
103.33333	-0.00229
103.28333	0.00351
103.23333	0.00222
103.20000	0.00287
103.16667	0.00142
103.11667	0.00045
103.08333	0.00383
103.05000	0.00319
103.00000	0.00303
102.96667	0.00222
102.95000	0.00093
102.93333	0.00496
102.93333	-0.00019
102.90000	0.00142
102.86667	0.00110
102.80000	0.00013
102.71667	0.00045
102.63333	0.00206
102.58333	0.00110
102.53333	-0.00100
102.48333	0.00400
102.43333	0.00351
102.40000	0.00287
102.35000	0.00190
102.30000	0.00706
102.25000	-0.00052
102.21667	-0.00100
102.18333	-0.00003
102.15000	0.00158
102.11667	0.00351
102.08333	-0.00019
102.06667	0.00238
102.05000	0.00271
102.03333	-0.00116
102.00000	0.00351
101.98333	-0.00116
101.95000	0.00126
101.93333	-0.00245
101.90000	0.00045
101.88333	0.00029
101.86667	0.00013
101.86667	-0.00052
101.85000	-0.00148
101.83333	0.00174
101.83333	-0.00116
101.81667	0.00029
101.81667	-0.00019
101.81667	0.00126
101.81667	0.00126
101.81667	-0.00325
101.81667	-0.00358
101.81667	0.15238
101.81667	0.00077
101.81667	0.05603
101.81667	-0.00035
101.81667	0.00287
101.81667	-0.00245
101.81667	0.14352
101.81667	-0.00003
101.80000	0.05007
101.80000	-0.00245
101.80000	0.00577
101.76667	-0.00180
101.73333	0.00061
101.70000	-0.00325
101.68333	0.01705
101.66667	-0.00342
101.65000	0.00190
101.65000	-0.00068
101.63333	0.00174
101.63333	0.08826
101.61667	-0.00180
101.60000	0.15641
101.60000	0.00061
101.58333	0.05313
101.58333	-0.00148
101.58333	0.14320
101.58333	-0.00003
101.58333	0.05426
101.56667	-0.00261
101.56667	0.00448
101.56667	-0.00148
101.56667	-0.00229
101.56667	0.70483
101.56667	0.00206
101.56667	0.98501
101.55000	-0.00019
101.55000	-0.00132
101.55000	0.00657
101.55000	-0.00035
101.55000	0.00222
101.55000	-0.00003
101.53333	0.01060
101.53333	-0.00197
101.53333	0.00206
101.53333	-0.00583
101.53333	-0.00003
101.53333	-0.00003
101.53333	0.01672
101.55000	-0.00213
101.55000	-0.00084
101.55000	-0.00180
101.56667	0.12644
101.56667	-0.00164
101.56667	-0.00100
101.56667	-0.00084
101.58333	0.00577
101.58333	-0.00197
101.58333	-0.00454
101.60000	-0.00019
101.60000	-0.00132
101.60000	-0.00229
101.61667	0.00110
101.61667	-0.00229
101.61667	-0.00422
101.61667	0.00013
101.61667	0.00029
101.61667	-0.00148
101.61667	-0.00084
101.60000	0.00126
101.60000	-0.00422
101.60000	0.00351
101.60000	-0.00422
101.60000	0.00126
101.60000	-0.00261
101.60000	0.01592
101.60000	-0.00293
101.60000	-0.00390
101.60000	-0.00503
101.60000	0.00013
101.60000	0.07118
101.60000	-0.00261
101.60000	0.00158
101.60000	-0.00180
101.60000	-0.00213
101.60000	0.06635
101.60000	-0.00342
101.60000	0.00545
101.60000	-0.00309
101.60000	-0.00116
101.60000	-0.00229
101.60000	0.00561
101.60000	-0.00406
101.60000	0.00222
101.63333	-0.00197
101.66667	0.13659
101.68333	-0.00148
101.70000	-0.00068
101.71667	-0.00068
101.78333	-0.00019
101.83333	-0.00132
101.90000	0.00255
101.95000	0.00029
101.96667	0.00383
102.00000	0.00110
102.06667	-0.00003
102.13333	0.00335
102.23333	0.00448
102.33333	-0.00213
102.45000	0.00287
102.55000	0.00126
102.68333	0.00255
102.76667	-0.00100
102.85000	0.00045
102.91667	-0.00148
102.95000	-0.00052
103.00000	-0.00019
103.06667	0.00110
103.15000	0.00190
103.21667	0.00077
103.26667	-0.00052
103.31667	0.00077
103.48333	0.00351
103.60000	0.00255
103.68333	0.00271
103.70000	0.00351
103.70000	0.00416
103.70000	0.00206
103.70000	0.00512
103.68333	0.00238
103.68333	0.00383
103.68333	-0.00422
103.68333	0.00222
103.68333	0.00045
103.68333	0.00319
103.68333	0.01173
103.70000	-0.00035
103.70000	0.00367
103.73333	0.00126
103.80000	-0.00068
103.83333	0.00206
103.85000	0.00158
103.90000	-0.00180
104.00000	-0.00213
104.13333	0.00093
104.23333	0.00142
104.33333	-0.00180
104.43333	0.00271
104.51667	0.00045
104.61667	0.00061
104.70000	0.00206
104.80000	-0.00164
104.83333	0.00238
104.86667	0.00126
104.88333	-0.00068
104.91667	-0.00052
104.91667	0.00126
104.91667	-0.00164
104.93333	0.00319
104.93333	-0.00084
104.93333	0.00303
104.95000	0.00271
104.95000	0.00061
104.96667	-0.00003
104.98333	-0.00052
105.01667	0.00029
105.03333	0.00287
105.05000	0.00271
105.08333	0.00206
105.11667	0.00255
105.13333	0.00093
105.15000	0.00126
105.16667	-0.00213
105.20000	0.00045
105.25000	0.00255
105.31667	0.00190
105.38333	0.00271
105.43333	0.00142
105.46667	-0.00035
105.50000	0.00271
105.53333	-0.00148
105.60000	0.00287
105.66667	0.00432
105.71667	-0.00019
105.76667	0.00142
105.81667	0.00383
105.90000	0.00416
105.98333	0.00222
106.15000	0.00351
106.21667	0.00545
106.26667	0.00142
106.31667	0.00045
106.36667	0.00255
106.41667	-0.00100
106.43333	0.00319
106.43333	-0.00116
106.46667	0.00013
106.58333	0.00545
106.66667	0.00206
106.75000	-0.00003
106.80000	-0.00084
106.80000	0.00190
106.80000	0.00045
106.81667	0.00029
106.86667	0.00174
106.93333	-0.00003
107.01667	0.00110
107.05000	0.00158
107.06667	0.00367
107.06667	0.00238
107.06667	0.00335
107.06667	-0.00052
107.06667	-0.00035
107.06667	0.00061
107.06667	0.00158
107.06667	-0.00068
107.06667	0.00335
107.06667	0.00287
107.06667	-0.00116
107.06667	0.00351
107.06667	-0.00245
107.06667	0.00432
107.06667	0.00416
107.06667	-0.00003
107.06667	0.00206
107.06667	0.00045
107.06667	0.00174
107.08333	0.00383
107.08333	0.00303
107.08333	0.00126
107.10000	0.00061
107.11667	0.00448
107.13333	0.00528
107.16667	-0.00197
107.21667	0.00013
107.28333	0.00077
107.36667	0.00093
107.50000	0.00319
107.60000	0.00126
107.70000	0.00432
107.81667	-0.00019
107.91667	0.00609
108.03333	0.00110
108.18333	-0.00116
108.35000	-0.00132
108.55000	-0.00132
108.70000	-0.00438
108.86667	0.06554
109.05000	-0.00438
109.20000	0.00255
109.36667	-0.00229
109.50000	-0.00148
109.55000	0.06232
109.58333	-0.00100
109.63333	0.00400
109.66667	-0.00100
109.66667	-0.00438
109.66667	0.06522
109.66667	-0.00261
109.66667	0.00432
109.66667	0.00706
109.65000	0.00029
109.65000	0.00061
109.65000	-0.00068
109.65000	-0.00068
109.65000	0.00738
109.65000	0.00577
109.65000	0.00641
109.65000	0.00400
109.65000	0.00287
109.65000	0.00013
109.65000	0.00077
109.65000	0.00029
109.65000	0.00255
109.65000	0.00480
109.65000	0.00045
109.65000	0.00528
109.65000	0.00271
109.65000	0.00432
109.65000	0.00222
109.65000	0.00093
109.65000	0.00512
109.65000	0.00303
109.65000	0.00335
109.65000	0.00448
109.65000	0.00545
109.65000	0.00287
109.65000	-0.00213
109.65000	-0.00374
109.66667	0.00351
109.66667	0.00367
109.66667	0.00271
109.66667	0.00255
109.68333	0.00480
109.70000	0.00545
109.76667	0.00400
109.93333	0.00673
110.05000	0.00528
110.08333	0.00947
110.10000	0.00383
110.10000	-0.00052
110.10000	0.00416
110.08333	0.00577
110.08333	0.00722
110.08333	0.00174
110.06667	0.00335
110.05000	0.00496
110.05000	-0.00245
110.03333	0.00754
110.03333	0.00190
110.01667	0.00222
110.00000	0.00319
109.98333	0.00464
109.96667	0.00931
109.95000	0.00641
109.90000	0.00818
109.85000	0.00561
109.80000	0.00303
109.76667	0.01189
109.71667	0.00947
109.66667	0.00545
109.61667	0.01012
109.56667	0.00786
109.50000	0.00770
109.46667	0.00335
109.41667	0.00110
109.36667	0.00432
109.28333	0.00174
109.18333	0.00577
109.05000	0.00432
108.95000	-0.00019
108.85000	0.00383
108.78333	0.00383
108.73333	0.00110
108.68333	0.00416
108.66667	-0.00213
108.63333	0.00061
108.61667	0.00303
108.58333	0.00061
108.56667	0.00770
108.55000	0.01237
108.53333	0.01270
108.50000	0.00786
108.45000	0.00883
108.38333	0.00786
108.31667	0.00738
108.25000	0.01479
108.18333	0.00947
108.10000	0.00577
107.98333	0.00158
107.81667	0.00400
107.70000	0.00400
107.58333	0.00512
107.48333	0.00093
107.36667	0.00271
107.23333	0.00480
107.13333	0.00255
107.01667	0.00303
106.85000	0.00303
106.68333	0.00158
106.51667	-0.00019
106.40000	-0.00035
106.28333	0.00093
106.23333	0.00255
106.21667	0.00158
106.20000	0.00093
106.20000	0.00093
106.20000	0.00255
106.20000	0.00609
106.20000	-0.00035
106.20000	0.00271
106.20000	0.00383
106.20000	-0.00164
106.20000	-0.00052
106.20000	-0.00068
106.20000	0.00061
106.20000	0.00077
106.21667	0.00126
106.21667	0.00383
106.21667	-0.00019
106.21667	-0.00003
106.21667	0.00303
106.21667	-0.00035
106.21667	0.00287
106.21667	0.00126
106.23333	-0.00293
106.23333	-0.00052
106.25000	0.00093
106.25000	0.00190
106.25000	0.00061
106.26667	0.00464
106.26667	0.00351
106.26667	0.00335
106.26667	-0.00148
106.26667	0.00271
106.26667	0.00802
106.28333	0.00142
106.28333	0.00158
106.28333	0.00400
106.26667	0.00319
106.26667	0.00222
106.26667	0.00512
106.26667	0.00077
106.26667	-0.00164
106.26667	-0.00229
106.26667	0.00190
106.25000	0.00255
106.23333	0.00222
106.21667	0.00238
106.13333	0.00142
106.00000	0.00142
105.81667	-0.00019
105.70000	0.00045
105.65000	-0.00019
105.61667	0.00464
105.55000	0.00319
105.50000	0.00174
105.46667	0.00238
105.41667	-0.00197
105.35000	0.00238
105.25000	-0.00116
105.15000	0.00110
105.10000	-0.00132
105.06667	-0.00003
105.03333	0.00142
105.01667	0.00013
105.00000	-0.00197
104.98333	0.00255
104.96667	0.00174
104.91667	0.00045
104.86667	0.00222
104.81667	0.00271
104.76667	-0.00052
104.70000	-0.00068
104.63333	0.00174
104.56667	0.00077
104.50000	0.00271
104.43333	0.00061
104.33333	-0.00035
104.23333	0.00222
104.16667	0.00093
104.13333	-0.00180
104.08333	0.00142
104.05000	-0.00003
103.96667	-0.00116
103.86667	-0.00116
103.83333	-0.00245
103.81667	-0.00132
103.78333	-0.00019
103.75000	0.00029
103.70000	-0.00164
103.60000	0.00061
103.50000	0.00093
103.41667	0.00093
103.36667	-0.00229
103.30000	0.00045
103.23333	0.00158
103.18333	0.00013
103.13333	0.00077
103.08333	-0.00052
103.01667	-0.00245
102.93333	-0.00229
102.85000	0.00029
102.76667	-0.00180
102.68333	-0.00003
102.63333	-0.00342
102.58333	-0.00293
102.53333	-0.00148
102.48333	-0.00132
102.41667	-0.00003
102.35000	-0.00374
102.33333	-0.00068
102.31667	-0.00084
102.30000	-0.00084
102.30000	-0.00132
102.30000	0.00271
102.30000	-0.00084
102.30000	0.00206
102.28333	0.00045
102.28333	0.00174
102.28333	0.00174
102.28333	-0.00277
102.28333	0.00271
102.30000	0.00061
102.30000	-0.00438
102.30000	-0.00132
102.30000	-0.00164
102.30000	0.00061
102.30000	0.00126
102.30000	-0.00342
102.30000	-0.00035
102.30000	0.00238
102.30000	0.00093
102.30000	-0.00229
102.30000	0.00174
102.30000	0.00110
102.30000	0.00222
102.30000	0.00222
102.30000	0.00013
102.30000	0.00029
102.30000	-0.00132
102.30000	-0.00148
102.30000	0.00013
102.30000	-0.00197
102.30000	0.00335
102.30000	0.00174
102.30000	-0.00100
102.30000	-0.00068
102.30000	-0.00213
102.30000	0.00158
102.30000	0.00287
102.30000	0.00174
102.30000	0.00190
102.30000	0.00351
102.30000	0.00158
102.30000	0.00045
102.30000	0.00255
102.30000	-0.00100
102.30000	-0.00019
102.30000	-0.00261
102.30000	-0.00245
102.30000	0.00077
102.30000	-0.00164
102.30000	-0.00164
102.30000	0.00158
102.30000	0.00238
102.30000	0.00077
102.30000	0.00174
102.30000	0.00303
102.30000	0.00029
102.30000	0.00222
102.30000	0.00142
102.30000	-0.00148
102.30000	0.00287
102.30000	-0.00019
102.30000	0.00190
102.30000	0.00287
102.30000	-0.00229
102.30000	0.00351
102.30000	-0.00019
102.31667	-0.00068
102.31667	0.00351
102.31667	0.00045
102.31667	0.00206
102.31667	0.00190
102.31667	-0.00229
102.31667	0.00287
102.31667	0.00287
102.31667	-0.00374
102.31667	-0.00019
102.31667	-0.00229
102.31667	0.00110
102.30000	0.00077
102.30000	-0.00052
102.30000	0.00093
102.30000	0.00303
102.30000	0.00126
102.30000	-0.00164
102.30000	0.00206
102.30000	-0.00100
102.30000	0.00174
102.30000	0.00158
102.30000	-0.00261
102.30000	0.00013
102.30000	-0.00116
102.30000	-0.00084
102.30000	-0.00052
102.30000	-0.00148
102.30000	-0.00084
102.30000	-0.00003
102.28333	-0.00084
102.28333	0.00126
102.26667	-0.00229
102.25000	-0.00180
102.16667	-0.00245
102.05000	0.00013
101.96667	0.00077
101.91667	-0.00035
101.88333	-0.00068
101.85000	0.00013
101.81667	-0.00261
101.80000	-0.00003
101.76667	0.00061
101.76667	-0.00003
101.73333	0.00045
101.71667	-0.00100
101.68333	-0.00035
101.63333	-0.00213
101.58333	0.00077
101.53333	-0.00148
101.50000	0.00061
101.46667	-0.00213
101.41667	-0.00019
101.31667	0.00255
101.20000	-0.00180
101.08333	0.00045
100.96667	-0.00132
100.86667	-0.00116
100.80000	-0.00019
100.75000	-0.00390
100.70000	-0.00003
100.66667	0.00077
100.63333	0.00126
100.58333	-0.00084
100.55000	0.00110
100.51667	0.00110
100.46667	0.00271
100.45000	-0.00277
100.45000	-0.00084
100.43333	-0.00390
100.43333	0.03686
100.43333	-0.00261
100.43333	0.10759
100.43333	0.00061
100.43333	-0.00068
100.43333	-0.00084
100.43333	-0.00052
100.41667	-0.00277
100.41667	0.10614
100.40000	-0.00052
100.40000	0.04153
100.38333	-0.00487
100.38333	0.22939
100.36667	-0.00245
100.35000	0.53728
100.33333	-0.00100
100.30000	0.17187
100.28333	-0.00487
100.26667	0.05442
100.25000	-0.00180
100.21667	0.53341
100.15000	0.00190
100.08333	0.16736
100.01667	-0.00197
99.93333	-0.00116
99.83333	0.00496
99.75000	-0.00277
99.73333	0.02752
99.73333	-0.00406
99.73333	0.09937
99.73333	-0.00293
99.71667	0.24067
99.71667	-0.00164
99.71667	0.52374
99.71667	0.00190
99.71667	0.93796
99.71667	0.00013
99.71667	0.08568
99.71667	0.00077
99.71667	0.07053
99.71667	0.01092
99.71667	-0.00342
99.73333	0.00174
99.73333	-0.00068
99.73333	0.00061
99.73333	0.36553
99.73333	0.00545
99.73333	-0.00148
99.73333	-0.00116
99.73333	-0.00229
99.73333	0.10985
99.73333	-0.00197
99.73333	0.02977
99.75000	-0.00229
99.75000	0.00158
99.75000	-0.00487
99.75000	0.09164
99.75000	-0.00213
99.75000	0.03702
99.75000	-0.00277
99.75000	0.00545
99.75000	-0.00245
99.73333	0.00013
99.73333	-0.00406
99.73333	-0.00084
99.71667	0.04057
99.71667	-0.00180
99.70000	0.48556
99.68333	0.00980
99.63333	-0.00100
99.55000	-0.00052
99.45000	-0.00084
99.36667	-0.00164
99.30000	0.53889
99.26667	0.00061
99.25000	0.16930
99.21667	0.00093
99.20000	0.06296
99.20000	-0.00293
99.18333	0.52487
99.18333	-0.00068
99.16667	0.17091
99.15000	-0.00213
99.13333	0.05523
99.10000	-0.00358
99.06667	0.51472
99.00000	-0.00035
98.95000	0.17042
98.93333	-0.00019
98.93333	0.16672
98.93333	0.01044
98.91667	-0.00084
98.91667	-0.00084
98.90000	-0.00100
98.90000	-0.00406
98.88333	-0.00180
98.88333	0.00126
98.86667	0.00013
98.86667	-0.00197
98.85000	0.00126
98.83333	-0.00084
98.83333	-0.00180
98.81667	-0.00148
98.80000	0.00029
98.76667	-0.00261
98.71667	-0.00164
98.68333	-0.00342
98.65000	-0.00003
98.65000	-0.00197
98.65000	-0.00052
98.63333	0.00045
98.60000	0.00110
98.56667	-0.00197
98.51667	-0.00229
98.46667	-0.00068
98.40000	-0.00197
98.35000	-0.00116
98.31667	-0.00164
98.30000	-0.00035
98.28333	0.00029
98.28333	-0.00084
98.28333	-0.00180
98.28333	-0.00342
98.28333	-0.00197
98.28333	-0.00084
98.28333	-0.00132
98.28333	-0.00003
98.30000	0.00190
98.30000	0.00045
98.30000	-0.00487
98.30000	0.00126
98.31667	-0.00197
98.31667	-0.00180
98.33333	-0.00180
98.33333	0.00013
98.35000	0.00077
98.35000	-0.00148
98.35000	-0.00213
98.33333	-0.00100
98.33333	-0.00277
98.33333	-0.00213
98.33333	-0.00003
98.33333	-0.00148
98.33333	0.00029
98.35000	0.00110
98.35000	-0.00180
98.35000	-0.00019
98.35000	-0.00245
98.35000	0.00126
98.33333	-0.00245
98.33333	-0.00116
98.33333	-0.00019
98.33333	0.00061
98.33333	-0.00003
98.33333	-0.00148
98.33333	0.00093
98.33333	-0.00180
98.33333	-0.00084
98.33333	0.00061
98.33333	-0.00277
98.33333	-0.00100
98.33333	-0.00019
98.33333	-0.00197
98.33333	-0.00084
98.33333	-0.00132
98.33333	-0.00277
98.33333	0.00077
98.33333	-0.00164
98.33333	-0.00374
98.33333	-0.00052
98.33333	-0.00180
98.33333	-0.00197
98.33333	-0.00035
98.33333	0.00045
98.33333	0.00093
98.33333	-0.00277
98.33333	-0.00229
98.33333	-0.00325
98.33333	0.00061
98.33333	-0.00180
98.33333	-0.00309
98.31667	-0.00180
98.31667	-0.00180
98.31667	-0.00213
98.30000	-0.00003
98.25000	0.00013
98.06667	-0.00003
97.86667	-0.00164
97.73333	-0.00019
97.66667	-0.00148
97.58333	0.00190
97.53333	-0.00148
97.46667	0.00093
97.43333	-0.00406
97.41667	0.00077
97.40000	0.00158
97.38333	0.00013
97.38333	0.00238
97.36667	-0.00068
97.35000	-0.00293
97.33333	0.00206
97.31667	-0.00229
97.30000	0.00077
97.30000	0.00061
97.28333	-0.00422
97.28333	0.00045
97.28333	0.00110
97.28333	0.00077
97.26667	0.00045
97.26667	0.00255
97.26667	0.00077
97.26667	0.00190
97.26667	-0.00003
97.26667	-0.00309
97.26667	0.00126
97.26667	-0.00164
97.26667	0.00029
97.26667	-0.00438
97.26667	0.00077
97.26667	0.00061
97.26667	-0.00052
97.26667	-0.00100
97.26667	-0.00084
97.26667	-0.00261
97.26667	0.00206
97.26667	0.00238
97.26667	-0.00084
97.26667	0.00142
97.26667	0.00093
97.26667	-0.00164
97.26667	-0.00116
97.28333	0.00029
97.28333	0.00093
97.28333	-0.00035
97.28333	0.00190
97.28333	0.00174
97.28333	0.00126
97.28333	0.00174
97.28333	0.00255
97.28333	-0.00229
97.28333	-0.00068
97.28333	-0.00019
97.28333	-0.00229
97.26667	-0.00003
97.26667	0.00093
97.26667	0.00303
97.26667	0.00029
97.25000	0.00222
97.20000	0.00142
97.11667	-0.00229
97.03333	0.00013
96.95000	0.00158
96.88333	0.00093
96.85000	-0.00052
96.80000	-0.00132
96.75000	-0.00100
96.71667	0.00319
96.68333	0.00303
96.68333	0.00142
96.66667	0.00093
96.66667	-0.00100
96.66667	-0.00116
96.65000	0.00045
96.65000	0.00126
96.63333	-0.00052
96.63333	0.00190
96.63333	-0.00003
96.63333	0.00077
96.63333	-0.00003
96.63333	-0.00068
96.63333	-0.00148
96.63333	-0.00197
96.63333	0.00255
96.63333	-0.00229
96.63333	0.00013
96.63333	0.00013
96.63333	0.00190
96.63333	-0.00035
96.61667	-0.00035
96.61667	0.00222
96.60000	-0.00084
96.58333	0.00174
96.55000	0.00206
96.50000	0.00110
96.41667	0.00319
96.36667	0.00142
96.31667	0.00061
96.26667	0.00174
96.21667	0.00158
96.15000	-0.00132
96.10000	-0.00068
96.03333	-0.00277
95.98333	0.00110
95.91667	0.00335
95.85000	0.00238
95.80000	-0.00229
95.75000	0.00093
95.70000	0.00142
95.66667	0.00126
95.63333	0.00271
95.61667	-0.00068
95.58333	0.00093
95.56667	0.00416
95.51667	0.00061
95.43333	0.00158
95.38333	0.00351
95.38333	-0.00035
95.36667	-0.00003
95.36667	0.00190
95.36667	-0.00100
95.36667	0.00222
95.38333	-0.00132
95.38333	0.00222
95.38333	0.00077
95.38333	0.00190
95.38333	0.00303
95.38333	0.00238
95.38333	0.00351
95.38333	0.00045
95.38333	0.00383
95.38333	0.00142
95.38333	-0.00100
95.38333	0.00335
95.38333	0.00287
95.36667	-0.00035
95.35000	0.00061
95.25000	0.00126
95.13333	0.00351
95.01667	0.00077
94.95000	0.00029
94.88333	-0.00342
94.85000	0.00303
94.80000	0.00335
94.76667	0.00093
94.73333	0.00222
94.70000	0.00061
94.65000	0.00077
94.58333	-0.00213
94.53333	0.00093
94.46667	0.00319
94.43333	-0.00132
94.40000	0.00126
94.38333	0.00335
94.35000	-0.00197
94.31667	0.00158
94.30000	-0.00052
94.30000	0.00190
94.30000	0.00045
94.30000	0.00335
94.30000	0.00335
94.30000	-0.00213
94.30000	0.00029
94.30000	0.00400
94.31667	0.00061
94.31667	-0.00003
94.33333	0.00061
94.33333	0.00335
94.33333	-0.00277
94.33333	0.00013
94.33333	0.00238
94.33333	-0.00084
94.33333	0.00045
94.33333	-0.00003
94.35000	0.00126
94.35000	0.00077
94.35000	0.00142
94.35000	-0.00019
94.35000	-0.00003
94.35000	0.00416
94.35000	0.00222
94.35000	0.00190
94.35000	0.00126
94.35000	-0.00245
94.35000	0.00029
94.35000	-0.00052
94.35000	0.00029
94.35000	0.00416
94.35000	0.00061
94.35000	0.00383
94.35000	0.00319
94.35000	0.00238
94.35000	-0.00325
94.35000	0.00158
94.35000	-0.00084
94.35000	-0.00003
94.35000	0.00142
94.35000	0.00303
94.35000	0.00013
94.35000	-0.00148
94.35000	0.00367
94.35000	0.00158
94.35000	-0.00068
94.35000	0.00222
94.35000	0.00528
94.35000	-0.00213
94.35000	0.00255
94.35000	0.00367
94.35000	-0.00197
94.35000	0.00158
94.35000	-0.00229
94.35000	-0.00019
94.35000	0.00158
94.35000	0.00206
94.35000	0.00126
94.35000	0.00061
94.35000	0.00255
94.35000	0.00045
94.35000	0.00271
94.35000	0.00222
94.35000	-0.00003
94.35000	0.00351
94.35000	0.00142
94.35000	-0.00003
94.35000	0.00190
94.35000	0.00480
94.35000	0.00238
94.35000	-0.00503
94.35000	0.00190
94.35000	0.00351
94.33333	-0.00019
94.31667	0.00126
94.21667	0.00029
94.01667	0.00013
93.85000	0.00045
93.78333	0.00158
93.73333	0.00287
93.68333	0.00480
93.65000	0.00174
93.61667	-0.00068
93.60000	0.00126
93.60000	0.00625
93.58333	-0.00019
93.58333	0.00206
93.56667	0.00142
93.56667	0.00142
93.56667	0.00367
93.56667	0.00045
93.56667	0.00126
93.56667	0.00093
93.55000	-0.00019
93.53333	-0.00116
93.50000	0.00126
93.46667	0.00110
93.45000	0.00383
93.43333	0.00093
93.41667	0.00158
93.38333	-0.00003
93.36667	-0.00068
93.28333	-0.00116
93.08333	0.00126
92.88333	0.00045
92.85000	0.00335
92.83333	0.00432
92.83333	-0.00019
92.83333	0.00464
92.83333	0.00303
92.83333	-0.00003
92.83333	0.00222
92.83333	0.00142
92.83333	0.00271
92.83333	0.00367
92.83333	0.00142
92.83333	0.00448
92.83333	-0.00100
92.83333	-0.00052
92.83333	0.00287
92.83333	0.00335
92.83333	0.00190
92.83333	-0.00052
92.83333	0.00271
92.83333	0.00238
92.83333	0.00061
92.83333	0.00029
92.85000	0.00287
92.85000	0.00174
92.85000	0.00110
92.85000	-0.00164
92.85000	0.00222
92.85000	0.00271
92.85000	0.00045
92.85000	-0.00068
92.85000	0.00383
92.85000	-0.00229
92.85000	0.00045
92.85000	0.00367
92.85000	0.00432
92.85000	0.00174
92.83333	0.00126
92.83333	-0.00035
92.83333	0.00351
92.81667	0.00174
92.78333	0.00110
92.68333	0.00174
92.56667	0.00142
92.51667	0.00303
92.45000	0.00061
92.38333	0.00255
92.31667	0.00496
92.26667	0.00206
92.21667	0.00174
92.13333	0.00512
92.08333	0.00142
92.03333	0.00367
92.01667	0.00383
91.98333	0.00093
91.90000	-0.00180
91.78333	-0.00277
91.70000	-0.00180
91.60000	0.00319
91.53333	-0.00019
91.50000	0.00400
91.45000	0.00190
91.40000	0.00126
91.35000	-0.00213
91.30000	0.00077
91.25000	-0.00309
91.15000	0.00013
91.10000	-0.00197
91.06667	0.00093
91.03333	0.00448
91.00000	-0.00148
90.98333	-0.00019
90.95000	-0.00132
90.95000	-0.00035
90.95000	-0.00003
90.95000	0.00029
90.95000	0.00303
90.95000	0.00383
90.93333	-0.00180
90.91667	0.00271
90.90000	0.00158
90.88333	0.00110
90.86667	-0.00132
90.80000	0.00158
90.75000	0.00110
90.66667	0.00029
90.60000	0.00110
90.58333	-0.00052
90.55000	0.00303
90.51667	-0.00164
90.48333	0.00206
90.41667	0.00464
90.31667	0.00818
90.21667	0.00287
90.13333	0.00915
90.10000	0.00367
90.08333	0.00367
90.06667	0.00577
90.05000	0.00931
90.05000	0.00577
90.05000	0.00271
90.05000	0.01076
90.05000	0.00980
90.05000	0.00448
90.05000	0.00464
90.05000	0.00464
90.05000	0.01060
90.05000	0.00980
90.05000	0.00754
90.03333	0.00303
90.03333	0.00545
90.03333	0.01012
90.01667	0.00722
90.01667	0.00480
89.98333	0.00963
89.98333	0.00673
89.96667	0.00722
89.96667	0.01334
89.96667	0.01092
89.96667	0.01253
89.95000	0.01028
89.95000	0.00786
89.93333	0.01108
89.93333	0.00786
89.90000	0.00432
89.83333	0.00722
89.75000	0.00528
89.65000	0.00754
89.56667	0.01125
89.48333	0.00641
89.41667	0.00899
89.36667	0.00851
89.33333	0.01060
89.30000	0.01769
89.26667	0.01157
89.25000	0.01108
89.23333	0.01560
89.20000	0.01479
89.18333	0.01092
89.15000	0.00673
89.13333	0.01302
89.10000	0.01221
89.08333	0.01270
89.05000	0.00996
89.00000	0.01624
88.93333	0.01382
88.88333	0.01801
88.85000	0.01012
88.81667	0.01495
88.78333	0.01495
88.76667	0.01205
88.75000	0.00931
88.73333	0.01527
88.71667	0.00545
88.68333	0.01415
88.66667	0.01382
88.66667	0.01576
88.66667	0.01237
88.66667	0.00899
88.66667	0.01624
88.66667	0.01366
88.66667	0.01318
88.66667	0.01447
88.66667	0.01495
88.68333	0.00899
88.68333	0.01705
88.68333	0.00947
88.68333	0.01527
88.68333	0.01479
88.68333	0.01495
88.68333	0.01705
88.68333	0.00931
88.68333	0.01060
88.68333	0.00980
88.68333	0.00577
88.68333	0.01221
88.68333	0.01108
88.68333	0.00126
88.68333	0.00287
88.68333	-0.00197
88.68333	0.00174
88.68333	0.00174
88.68333	0.00238
88.68333	-0.00148
88.70000	0.00383
88.70000	0.01415
88.70000	0.01543
88.70000	0.01672
88.70000	0.01302
88.70000	0.01221
88.70000	0.01705
88.70000	0.00561
88.70000	0.01237
88.70000	0.01543
88.70000	0.01560
88.70000	0.01495
88.68333	0.01576
88.68333	0.01382
88.68333	0.02059
88.68333	0.01866
88.68333	0.01769
88.68333	0.01028
88.68333	0.01705
88.68333	0.00883
88.68333	0.01527
88.68333	0.00013
88.68333	-0.00068
88.68333	0.00077
88.68333	-0.00052
88.68333	0.00400
88.68333	-0.00293
88.68333	0.00464
88.68333	0.00126
88.68333	0.00786
88.68333	0.00464
88.68333	0.00335
88.68333	0.00464
88.68333	0.00238
88.68333	0.00690
88.68333	0.00641
88.68333	0.00206
88.66667	0.01366
88.66667	0.01543
88.66667	0.01221
88.66667	0.01866
88.66667	0.01527
88.66667	0.01898
88.66667	0.01253
88.66667	0.01173
88.66667	0.00835
88.66667	0.00851
88.66667	0.00738
88.66667	0.01398
88.66667	0.01511
88.66667	0.01141
88.66667	0.01382
88.66667	0.01543
88.66667	0.01302
88.66667	0.01060
88.65000	0.01382
88.65000	0.01447
88.65000	0.01447
88.65000	0.02204
88.63333	0.01914
88.50000	0.01672
88.23333	0.02043
87.98333	0.02413
87.85000	0.01850
87.76667	0.02494
87.75000	0.02558
87.73333	0.01705
87.70000	0.02639
87.66667	0.02172
87.61667	0.02462
87.53333	0.02462
87.46667	0.03122
87.38333	0.02768
87.31667	0.02494
87.25000	0.02365
87.18333	0.02365
87.13333	0.02575
87.10000	0.02446
87.08333	0.02752
87.06667	0.02961
87.05000	0.02929
87.01667	0.01995
86.96667	0.02945
86.93333	0.02816
86.88333	0.02575
86.85000	0.03428
86.80000	0.02381
86.76667	0.03332
86.73333	0.02671
86.68333	0.02977
86.58333	0.02397
86.45000	0.03332
86.28333	0.03187
86.15000	0.03026
86.06667	0.03348
86.01667	0.03316
85.96667	0.02929
85.93333	0.03590
85.86667	0.03219
85.78333	0.03654
85.70000	0.03670
85.61667	0.03751
85.45000	0.03702
85.31667	0.03944
85.20000	0.04363
85.11667	0.03638
85.05000	0.04427
84.96667	0.03573
84.93333	0.03638
84.91667	0.03863
84.86667	0.03976
84.80000	0.03863
84.75000	0.04395
84.70000	0.04524
84.65000	0.04153
84.60000	0.03912
84.48333	0.04588
84.33333	0.04411
84.23333	0.05023
84.13333	0.04637
84.01667	0.05168
83.96667	0.04959
83.95000	0.04476
83.93333	0.04878
83.91667	0.04878
83.90000	0.04025
83.88333	0.04991
83.86667	0.04830
83.83333	0.04460
83.78333	0.04943
83.68333	0.04685
83.55000	0.04556
83.46667	0.04991
83.36667	0.04911
83.30000	0.04943
83.23333	0.04556
83.20000	0.05120
83.16667	0.04830
83.11667	0.04476
83.05000	0.04443
82.93333	0.04379
82.86667	0.04282
82.80000	0.04218
82.71667	0.04717
82.61667	0.05088
82.53333	0.05716
82.43333	0.05555
82.38333	0.06038
82.33333	0.06328
82.30000	0.06232
82.28333	0.06232
82.26667	0.05861
82.25000	0.06473
82.23333	0.06264
82.13333	0.06328
82.10000	0.06554
82.06667	0.06216
82.03333	0.06216
81.98333	0.06232
81.93333	0.06989
81.88333	0.06570
81.85000	0.05732
81.81667	0.06167
81.80000	0.06216
81.78333	0.06119
81.75000	0.06071
81.68333	0.06119
81.61667	0.06989
81.56667	0.07247
81.56667	0.07215
81.56667	0.06973
81.55000	0.07037
81.55000	0.07424
81.53333	0.07263
81.51667	0.07553
81.50000	0.07102
81.46667	0.07166
81.45000	0.07005
81.40000	0.07730
81.33333	0.07053
81.28333	0.07376
81.21667	0.07150
81.13333	0.07601
81.05000	0.07730
80.93333	0.08020
80.88333	0.06892
80.83333	0.07956
80.81667	0.07247
80.80000	0.06473
80.80000	0.06345
80.80000	0.06554
80.80000	0.06425
80.78333	0.07102
80.78333	0.07907
80.78333	0.07295
80.78333	0.07005
80.78333	0.08149
80.78333	0.08584
80.78333	0.08230
80.78333	0.07360
80.78333	0.07295
80.78333	0.07456
80.78333	0.07053
80.80000	0.07875
80.80000	0.08230
80.80000	0.08230
80.80000	0.08133
80.80000	0.07843
80.80000	0.08230
80.80000	0.07940
80.80000	0.07617
80.80000	0.08278
80.81667	0.07633
80.81667	0.07569
80.81667	0.08165
80.81667	0.07811
80.81667	0.07456
80.81667	0.07843
80.81667	0.07859
80.81667	0.08294
80.81667	0.07795
80.81667	0.07891
80.81667	0.07811
80.81667	0.07215
80.81667	0.01108
80.81667	0.00690
80.81667	0.00706
80.81667	0.02961
80.81667	0.04427
80.81667	0.04927
80.81667	0.05732
80.81667	0.06538
80.81667	0.07215
80.81667	0.00786
80.81667	-0.00116
80.83333	-0.00213
80.83333	0.00480
80.83333	0.00963
80.83333	0.00142
80.83333	0.00883
80.83333	0.00255
80.83333	0.01205
80.85000	0.02381
80.85000	0.05410
80.85000	0.05346
80.85000	0.05765
80.85000	0.07198
80.85000	0.07682
80.85000	0.08117
80.85000	0.07875
80.85000	0.07827
80.85000	0.08004
80.85000	0.08358
80.85000	0.07811
80.85000	0.07778
80.85000	0.08358
80.85000	0.07488
80.85000	0.08004
80.85000	0.07940
80.85000	0.08020
80.85000	0.07682
80.83333	0.07988
80.83333	0.06860
80.83333	0.05877
80.81667	0.06087
80.78333	0.06296
80.68333	0.06473
80.53333	0.07343
80.31667	0.07956
80.10000	0.08922
79.91667	0.09390
79.85000	0.09325
79.83333	0.08407
79.81667	0.09003
79.81667	0.09261
79.80000	0.08729
79.80000	0.09228
79.75000	0.09341
79.61667	0.08761
79.43333	0.07859
79.30000	0.06844
79.20000	0.06393
79.10000	0.06522
79.00000	0.06248
78.91667	0.07311
78.85000	0.08230
78.81667	0.08052
78.78333	0.08584
78.76667	0.08810
78.76667	0.09535
78.76667	0.10082
78.76667	0.10888
78.76667	0.10388
78.76667	0.09647
78.76667	0.08536
78.76667	0.07102
78.75000	0.06425
78.75000	0.06328
78.71667	0.05652
78.68333	0.05781
78.68333	0.06699
78.68333	0.09100
78.68333	0.09535
78.68333	0.10276
78.68333	0.10388
78.68333	0.10356
78.68333	0.10646
78.68333	0.10501
78.68333	0.09792
78.68333	0.09921
78.68333	0.10082
78.68333	0.10227
78.68333	0.10195
78.68333	0.10163
78.68333	0.10453
78.68333	0.10405
78.68333	0.10856
78.68333	0.10582
78.66667	0.10243
78.63333	0.10533
78.56667	0.10823
78.53333	0.10807
78.48333	0.09905
78.43333	0.09921
78.36667	0.09373
78.26667	0.10131
78.11667	0.10533
77.91667	0.10823
77.76667	0.11742
77.70000	0.11565
77.66667	0.11436
77.65000	0.11597
77.65000	0.12354
77.65000	0.11887
77.65000	0.10968
77.63333	0.11001
77.60000	0.10533
77.55000	0.11806
77.45000	0.11758
77.36667	0.11565
77.31667	0.12451
77.28333	0.12531
77.28333	0.12048
77.25000	0.12096
77.13333	0.12531
76.85000	0.13224
76.61667	0.13353
76.55000	0.13643
76.51667	0.13740
76.51667	0.12886
76.51667	0.11677
76.51667	0.10904
76.48333	0.10727
76.41667	0.11661
76.28333	0.12338
76.15000	0.12644
76.03333	0.14078
75.95000	0.14320
75.86667	0.14674
75.76667	0.15270
75.61667	0.15351
75.55000	0.15673
75.50000	0.14900
75.46667	0.14030
75.41667	0.11774
75.35000	0.10920
75.28333	0.10614
75.20000	0.10695
75.06667	0.11855
74.96667	0.13208
74.76667	0.15174
74.60000	0.17204
74.48333	0.16704
74.35000	0.18219
74.26667	0.17751
74.23333	0.17784
74.18333	0.17767
74.16667	0.18154
74.13333	0.17993
74.10000	0.18219
74.06667	0.18428
74.01667	0.18315
73.96667	0.18992
73.95000	0.18911
73.95000	0.18944
73.95000	0.18186
73.93333	0.18863
73.90000	0.19008
73.85000	0.18573
73.78333	0.18670
73.76667	0.16317
73.76667	0.07231
73.76667	0.00142
73.76667	0.00013
73.76667	0.00416
73.76667	0.00641
73.78333	0.05571
73.78333	0.08407
73.78333	0.12853
73.78333	0.16785
73.80000	0.18235
73.80000	0.18444
73.80000	0.17929
73.81667	0.07972
73.83333	0.08423
73.83333	0.13836
73.83333	0.17332
73.83333	0.18799
73.83333	0.18428
73.83333	0.18557
73.83333	0.18573
73.83333	0.15125
73.83333	0.14803
73.83333	0.14497
73.83333	0.14062
73.83333	0.08487
73.83333	0.02768
73.83333	0.01318
73.83333	0.01253
73.83333	0.04830
73.83333	0.07875
73.83333	0.15286
73.83333	0.18460
73.83333	0.19395
73.83333	0.19427
73.83333	0.18380
73.83333	0.13063
73.83333	0.01608
73.83333	0.00303
73.83333	0.01398
73.83333	0.08761
73.83333	0.16769
73.83333	0.17123
73.83333	0.17687
73.83333	0.17912
73.83333	0.18315
73.83333	0.18057
73.83333	0.17574
73.83333	0.17574
73.83333	0.16914
73.83333	0.16946
73.83333	0.16656
73.83333	0.18283
73.83333	0.17784
73.83333	0.17671
73.83333	0.16607
73.83333	0.15995
73.83333	0.16156
73.83333	0.16189
73.83333	0.16398
73.83333	0.17784
73.83333	0.18267
73.83333	0.18283
73.81667	0.18654
73.81667	0.18911
73.81667	0.18637
73.80000	0.18927
73.76667	0.18799
73.60000	0.19169
73.40000	0.17896
73.26667	0.17912
73.18333	0.18863
73.05000	0.18718
72.86667	0.18670
72.66667	0.18235
72.55000	0.19008
72.46667	0.20297
72.35000	0.21264
72.28333	0.21328
72.18333	0.20700
72.08333	0.18283
71.95000	0.17751
71.83333	0.14835
71.78333	0.15061
71.76667	0.19040
71.76667	0.22681
71.76667	0.24131
71.76667	0.23761
71.76667	0.24067
71.75000	0.24131
71.75000	0.23406
71.75000	0.23761
71.75000	0.23616
71.75000	0.23712
71.73333	0.23857
71.68333	0.24405
71.58333	0.24373
71.46667	0.24180
71.36667	0.24292
71.23333	0.23471
71.11667	0.22939
71.06667	0.22859
71.05000	0.23036
71.03333	0.22826
71.01667	0.23245
71.00000	0.23358
70.98333	0.23664
70.96667	0.23149
70.91667	0.23455
70.86667	0.24953
70.83333	0.25807
70.80000	0.25823
70.76667	0.25791
70.75000	0.26709
70.73333	0.26645
70.71667	0.26693
70.71667	0.26000
70.70000	0.26339
70.68333	0.26870
70.63333	0.27015
70.56667	0.26951
70.48333	0.26693
70.40000	0.26983
70.36667	0.27209
70.35000	0.26806
70.33333	0.27885
70.33333	0.27950
70.31667	0.27740
70.26667	0.27579
70.18333	0.27789
70.13333	0.27756
70.10000	0.26194
70.06667	0.26032
70.05000	0.25307
70.01667	0.24969
69.95000	0.26612
69.88333	0.27934
69.83333	0.28401
69.80000	0.28481
69.75000	0.28594
69.68333	0.29819
69.61667	0.29883
69.53333	0.29158
69.50000	0.29883
69.48333	0.30399
69.45000	0.29947
69.41667	0.29706
69.36667	0.30946
69.33333	0.30882
69.26667	0.31043
69.11667	0.30656
69.03333	0.31156
69.00000	0.31204
68.95000	0.31091
68.86667	0.31607
68.75000	0.28900
68.66667	0.25034
68.65000	0.20377
68.65000	0.16269
68.65000	0.12805
68.65000	0.07972
68.65000	0.07376
68.65000	0.02768
68.65000	0.02333
68.66667	0.02913
68.66667	0.06055
68.66667	0.08471
68.68333	0.02236
68.70000	-0.00213
68.71667	-0.00406
68.71667	-0.00213
68.71667	-0.00084
68.71667	0.00754
68.71667	0.01173
68.71667	0.00835
68.71667	0.06248
68.71667	0.09132
68.71667	0.14465
68.71667	0.18444
68.71667	0.24164
68.71667	0.29577
68.71667	0.31623
68.71667	0.32686
68.71667	0.31977
68.71667	0.30205
68.71667	0.29045
68.71667	0.28191
68.71667	0.28723
68.71667	0.09583
68.70000	0.00077
68.70000	-0.00213
68.70000	0.00093
68.70000	0.08020
68.70000	0.11710
68.70000	0.17300
68.70000	0.20410
68.70000	0.23036
68.70000	0.27031
68.70000	0.28642
68.70000	0.29899
68.70000	0.30544
68.70000	0.30399
68.70000	0.31140
68.70000	0.31414
68.70000	0.32509
68.70000	0.32461
68.70000	0.31961
68.70000	0.32139
68.71667	0.32155
68.71667	0.32058
68.71667	0.31768
68.71667	0.32461
68.71667	0.32364
68.71667	0.31349
68.71667	0.31333
68.71667	0.30399
68.71667	0.29593
68.71667	0.29351
68.71667	0.29738
68.71667	0.30962
68.70000	0.30866
68.70000	0.32187
68.66667	0.33041
68.56667	0.33508
68.48333	0.33266
68.43333	0.33862
68.40000	0.33991
68.31667	0.33830
68.23333	0.33411
68.20000	0.32912
68.15000	0.32348
68.08333	0.30560
67.98333	0.29883
67.85000	0.30060
67.73333	0.31704
67.60000	0.36472
67.51667	0.36440
67.50000	0.36956
67.50000	0.36263
67.48333	0.34297
67.45000	0.30592
67.43333	0.23503
67.38333	0.19040
67.31667	0.18074
67.26667	0.19620
67.25000	0.26226
67.25000	0.31994
67.25000	0.36585
67.25000	0.37890
67.25000	0.38035
67.25000	0.38100
67.25000	0.38212
67.25000	0.38454
67.25000	0.38180
67.25000	0.38164
67.25000	0.37600
67.21667	0.37922
67.16667	0.38035
67.08333	0.38051
67.03333	0.38067
67.00000	0.38019
66.98333	0.37681
66.95000	0.38470
66.93333	0.37858
66.88333	0.38293
66.81667	0.39179
66.73333	0.39389
66.61667	0.40065
66.51667	0.39920
66.41667	0.38921
66.33333	0.38325
66.23333	0.36440
66.13333	0.32638
66.05000	0.28465
65.93333	0.22488
65.81667	0.14948
65.70000	0.07585
65.60000	0.05926
65.51667	0.09937
65.48333	0.20796
65.48333	0.29432
65.48333	0.37971
65.48333	0.42401
65.46667	0.43755
65.46667	0.44464
65.46667	0.44754
65.46667	0.44721
65.48333	0.45608
65.48333	0.45124
65.48333	0.43449
65.48333	0.41580
65.48333	0.44705
65.48333	0.43288
65.48333	0.43690
65.48333	0.44544
65.48333	0.42579
65.50000	0.37262
65.50000	0.36988
65.50000	0.37052
65.50000	0.35892
65.50000	0.37729
65.50000	0.39421
65.50000	0.39421
65.50000	0.40098
65.51667	0.40855
65.51667	0.42353
65.51667	0.43143
65.51667	0.42949
65.51667	0.42998
65.51667	0.43884
65.50000	0.45076
65.50000	0.45624
65.50000	0.45479
65.50000	0.45865
65.50000	0.46010
65.48333	0.45865
65.46667	0.45559
65.38333	0.45817
65.26667	0.45318
65.13333	0.44448
64.96667	0.42095
64.78333	0.40033
64.63333	0.33637
64.56667	0.34346
64.48333	0.34136
64.38333	0.36247
64.30000	0.47122
64.26667	0.51440
64.25000	0.48636
64.25000	0.48298
64.23333	0.48620
64.21667	0.49136
64.20000	0.49780
64.16667	0.51198
64.10000	0.51472
64.01667	0.52616
63.93333	0.52068
63.80000	0.50409
63.65000	0.46300
63.53333	0.43851
63.46667	0.41386
63.45000	0.39566
63.43333	0.38100
63.41667	0.37777
63.41667	0.39308
63.41667	0.40178
63.43333	0.41676
63.43333	0.41290
63.43333	0.38374
63.43333	0.21779
63.43333	0.02236
63.43333	0.00013
63.43333	0.10485
63.45000	0.26983
63.45000	0.26741
63.45000	0.13740
63.45000	0.07811
63.45000	0.04975
63.46667	0.00609
63.46667	0.03445
63.46667	0.00319
63.46667	0.00110
63.46667	-0.00084
63.46667	0.01398
63.46667	0.08246
63.46667	0.17590
63.48333	0.30753
63.48333	0.42675
63.48333	0.44141
63.48333	0.40436
63.48333	0.37906
63.48333	0.36166
63.48333	0.37745
63.48333	0.47493
63.46667	0.53631
63.46667	0.54823
63.46667	0.53421
63.46667	0.52890
63.46667	0.52568
63.46667	0.53550
63.46667	0.54404
63.46667	0.52294
63.46667	0.46333
63.46667	0.41821
63.46667	0.50344
63.46667	0.50441
63.46667	0.50393
63.46667	0.40951
63.46667	0.06409
63.46667	-0.00406
63.46667	0.06635
63.46667	-0.00229
63.46667	-0.00100
63.46667	-0.00213
63.46667	-0.00390
63.46667	0.07182
63.48333	-0.00180
63.48333	0.00577
63.48333	-0.00374
63.48333	-0.00116
63.48333	0.07730
63.48333	0.02494
63.48333	-0.00068
63.46667	-0.00084
63.46667	0.30350
63.46667	0.48234
63.46667	0.50231
63.46667	0.51375
63.46667	0.51794
63.46667	0.54549
63.46667	0.55290
63.46667	0.55339
63.45000	0.54936
63.45000	0.54984
63.43333	0.55258
63.41667	0.55274
63.26667	0.54549
63.06667	0.54018
62.86667	0.50989
62.66667	0.50054
62.38333	0.42691
62.13333	0.33460
61.86667	0.41515
61.61667	0.56837
61.43333	0.59173
61.28333	0.58110
61.10000	0.58641
60.88333	0.55387
60.68333	0.52390
60.51667	0.58287
60.40000	0.67760
60.30000	0.73222
60.21667	0.73254
60.13333	0.73818
60.06667	0.75139
59.96667	0.76187
59.80000	0.76267
59.53333	0.70338
59.20000	0.48588
59.03333	0.34185
58.93333	0.34652
58.83333	0.46913
58.75000	0.71321
58.71667	0.82808
58.70000	0.84532
58.68333	0.84387
58.65000	0.83823
58.63333	0.84435
58.55000	0.85225
58.40000	0.86127
58.16667	0.87642
57.83333	0.78394
57.66667	0.66375
57.58333	0.67760
57.51667	0.84548
57.48333	0.93554
57.46667	0.93861
57.45000	0.93893
57.41667	0.93603
57.36667	0.95053
57.30000	0.95375
57.23333	0.95246
57.18333	0.96326
57.11667	0.97389
57.00000	0.97051
56.90000	0.97389
56.78333	0.96293
56.66667	0.94859
56.51667	0.86836
56.41667	0.63249
56.35000	0.45092
56.28333	0.39775
56.23333	0.54598
56.23333	0.93957
56.23333	1.04156
56.23333	1.00289
56.23333	0.99467
56.23333	0.99548
56.21667	0.99934
56.20000	1.00402
56.15000	1.01578
56.03333	1.05493
55.90000	1.06218
55.80000	1.07974
55.71667	1.08393
55.68333	1.07781
55.63333	1.07700
55.55000	1.06814
55.36667	1.01529
55.06667	0.80488
54.85000	0.54050
54.76667	0.48604
54.73333	1.03012
54.73333	1.00772
54.73333	0.85579
54.73333	0.91331
54.65000	1.05396
54.43333	1.18495
54.18333	1.23006
54.06667	1.24359
54.01667	1.24842
54.00000	1.25471
53.98333	1.26099
53.96667	1.25439
53.95000	1.25761
53.95000	1.25487
53.93333	1.25471
53.93333	1.25841
53.93333	1.26002
53.93333	1.25406
53.93333	1.25487
53.93333	1.25729
53.93333	1.26470
53.93333	1.25954
53.93333	1.25600
53.93333	1.25374
53.93333	1.22828
53.93333	1.20331
53.93333	1.16900
53.93333	1.15095
53.93333	1.14402
53.95000	1.14467
53.95000	1.14000
53.95000	1.14290
53.95000	1.13275
53.95000	1.13323
53.95000	1.16432
53.95000	1.18656
53.95000	1.20766
53.95000	1.21926
53.95000	1.23054
53.95000	1.24246
53.93333	1.23586
53.93333	1.22184
53.93333	1.22103
53.93333	1.22136
53.93333	1.23006
53.88333	1.23924
53.76667	1.25841
53.61667	1.29289
53.51667	1.29434
53.48333	1.30433
53.46667	1.30852
53.43333	1.31094
53.41667	1.31239
53.40000	1.30965
53.38333	1.31931
53.38333	1.32060
53.38333	1.31561
53.36667	1.31883
53.36667	1.31400
53.36667	1.31754
53.35000	1.31287
53.33333	1.30836
53.31667	1.29595
53.30000	1.28419
53.26667	1.26373
53.21667	1.26889
53.16667	1.25761
53.13333	1.23731
53.10000	1.22845
53.08333	1.21040
53.05000	1.19816
53.00000	1.16303
52.96667	1.15192
52.93333	1.12791
52.90000	1.10101
52.88333	1.09553
52.86667	1.09247
52.85000	1.08006
52.81667	1.08618
52.78333	1.07088
52.73333	1.02996
52.73333	0.97373
52.70000	0.89027
52.63333	0.79538
52.56667	0.68711
52.51667	0.43755
52.46667	0.33637
52.45000	0.34330
52.43333	0.43835
52.41667	0.47315
52.40000	0.52519
52.40000	0.53969
52.38333	0.47058
52.38333	0.34732
52.36667	0.21038
52.35000	0.10743
52.35000	0.09937
52.33333	0.08665
52.33333	0.09373
52.33333	0.10308
52.33333	0.11710
52.33333	0.09986
52.33333	0.10211
52.33333	0.10759
52.33333	0.12112
52.33333	0.25694
52.33333	0.44141
52.35000	0.62879
52.35000	0.75880
52.35000	0.86659
52.35000	0.91863
52.35000	0.78410
52.35000	0.53244
52.35000	0.63137
52.35000	0.84419
52.36667	0.94183
52.36667	1.05348
52.36667	1.05138
52.36667	1.04897
52.36667	1.08683
52.36667	1.15965
52.36667	1.28532
52.36667	1.30578
52.36667	1.35121
52.36667	1.35266
52.36667	1.34896
52.36667	1.35411
52.36667	1.39600
52.36667	1.43306
52.38333	1.42371
52.38333	1.41356
52.38333	1.39036
52.38333	1.37941
52.38333	1.36152
52.38333	1.19365
52.38333	1.14112
52.38333	1.12324
52.38333	1.09666
52.38333	1.16706
52.38333	1.31512
52.38333	1.35508
52.38333	0.97953
52.38333	1.15965
52.38333	1.30739
52.40000	1.37602
52.40000	1.42597
52.40000	1.39536
52.40000	1.35411
52.40000	1.15272
52.40000	0.19395
52.40000	0.00432
52.40000	0.00303
52.40000	0.00335
52.40000	0.00029
52.40000	0.01173
52.40000	0.23068
52.40000	1.14000
52.40000	1.26889
52.41667	1.35637
52.41667	1.38327
52.41667	1.38875
52.41667	1.39133
52.41667	1.38505
52.41667	1.38746
52.41667	1.34992
52.41667	1.33075
52.41667	1.32141
52.41667	1.33075
52.41667	1.36249
52.41667	1.37039
52.41667	1.37699
52.41667	1.36330
52.41667	1.31384
52.41667	1.15369
52.41667	1.13291
52.41667	1.16287
52.41667	1.15740
52.41667	1.23135
52.41667	1.22716
52.41667	1.20186
52.41667	1.34122
52.41667	1.40213
52.41667	1.42726
52.41667	1.42613
52.41667	1.42710
52.41667	1.43113
52.41667	1.42194
52.41667	1.37296
52.41667	1.33236
52.41667	1.34364
52.41667	1.37892
52.41667	1.42355
52.41667	1.42533
52.41667	1.38376
52.40000	1.33559
52.40000	1.40390
52.40000	1.40245
52.40000	1.40229
52.38333	1.42661
52.36667	1.38601
52.35000	0.98162
52.30000	0.70242
52.21667	0.72449
52.15000	0.85692
52.08333	0.87319
51.90000	0.71176
51.71667	0.62653
51.70000	0.91686
51.70000	1.36604
51.71667	1.49154
51.73333	1.47108
51.75000	1.45658
51.75000	1.49058
51.76667	1.34670
51.76667	1.04687
51.76667	0.15915
51.76667	0.01253
51.76667	0.10227
51.76667	0.12950
51.76667	0.35909
51.76667	0.61155
51.76667	0.79199
51.76667	0.93474
51.76667	1.02383
51.76667	1.08667
51.76667	1.13726
51.78333	1.25503
51.78333	1.38344
51.78333	1.43564
51.78333	1.46303
51.78333	1.45352
51.78333	1.38521
51.78333	1.30111
51.78333	1.22732
51.78333	1.08780
51.78333	1.07877
51.78333	1.22828
51.76667	1.11889
51.76667	1.14902
51.76667	1.36410
51.76667	1.49267
51.78333	1.47591
51.76667	1.45674
51.76667	1.47463
51.76667	1.48445
51.76667	1.20218
51.76667	1.06266
51.76667	1.17173
51.76667	1.22216
51.76667	1.28419
51.76667	1.30304
51.76667	1.30594
51.76667	1.31271
51.76667	1.27324
51.76667	1.33172
51.76667	1.36877
51.76667	1.33736
51.76667	1.33849
51.76667	1.35282
51.75000	1.39552
51.75000	1.39874
51.75000	1.44643
51.73333	1.47817
51.68333	1.50459
51.53333	1.53746
51.40000	1.55293
51.31667	1.55905
51.30000	1.56517
51.26667	1.54793
51.18333	1.53391
51.01667	1.47543
50.85000	1.33397
50.71667	1.21991
50.53333	1.04816
50.31667	0.83179
50.21667	0.63572
50.20000	0.66681
50.16667	0.60994
50.13333	0.53583
50.08333	0.45269
50.00000	0.42321
49.93333	0.83807
49.86667	0.88302
49.76667	0.70370
49.70000	0.75139
49.66667	1.40051
49.65000	1.57967
49.63333	1.69100
49.61667	1.74336
49.61667	1.73885
49.58333	1.74417
49.53333	1.70792
49.45000	1.66023
49.36667	1.77752
49.30000	1.65104
49.26667	1.55728
49.25000	1.60835
49.21667	1.65813
49.13333	1.73369
49.01667	1.80829
48.81667	1.86130
48.66667	1.83165
48.48333	1.66409
48.38333	1.35025
48.31667	1.14515
48.26667	1.01449
48.20000	0.95182
48.08333	1.26969
47.98333	1.24069
47.90000	1.16400
47.80000	1.11083
47.71667	1.12566
47.66667	1.19719
47.63333	1.86548
47.60000	1.92558
47.58333	1.91623
47.56667	1.92139
47.53333	1.90608
47.48333	1.90544
47.45000	1.92848
47.43333	1.99953
47.41667	1.95152
47.41667	1.99905
47.40000	2.01177
47.38333	2.01242
47.38333	2.00855
47.36667	2.01661
47.33333	2.04077
47.30000	2.06978
47.23333	2.08089
47.16667	2.09314
47.11667	2.09201
47.08333	2.08363
47.06667	2.08460
47.05000	2.07638
47.03333	2.08879
47.00000	2.11005
46.98333	2.11682
46.95000	2.12407
46.91667	2.12407
46.88333	2.12584
46.86667	2.11698
46.85000	2.12117
46.81667	2.12053
46.80000	2.11537
46.78333	2.11843
46.78333	2.11585
46.76667	2.12101
46.76667	2.11859
46.76667	2.12375
46.76667	2.12117
46.76667	2.12471
46.76667	2.12826
46.75000	2.12842
46.68333	2.12906
46.56667	2.11908
46.45000	2.10441
46.40000	2.09668
46.36667	2.15436
46.35000	2.19270
46.33333	2.21735
46.30000	2.22686
46.26667	2.23556
46.21667	2.22654
46.16667	2.22412
46.10000	2.19399
46.01667	2.18465
45.93333	2.16451
45.86667	2.18449
45.81667	2.20817
45.80000	2.27842
45.78333	2.31128
45.76667	2.30903
45.73333	2.31982
45.68333	2.32578
45.60000	2.32143
45.48333	2.34028
45.35000	2.36107
45.23333	2.36912
45.20000	2.37106
45.20000	2.37734
45.20000	2.35027
45.20000	2.32514
45.20000	2.32224
45.18333	2.32820
45.16667	2.33432
45.16667	2.32836
45.15000	2.32449
45.11667	2.33062
45.05000	2.35849
44.95000	2.40086
44.83333	2.45032
44.71667	2.47175
44.61667	2.48094
44.58333	2.48786
44.58333	2.48593
44.56667	2.41085
44.55000	2.41311
44.53333	2.41907
44.48333	2.43953
44.36667	2.48657
44.23333	2.53636
44.00000	2.56326
43.76667	2.53942
43.63333	2.48174
43.58333	2.47143
43.56667	2.46482
43.56667	2.47240
43.55000	2.50220
43.53333	2.56713
43.53333	2.61514
43.51667	2.63174
43.51667	2.60048
43.51667	2.59291
43.50000	2.60467
43.40000	2.64688
43.26667	2.68636
43.11667	2.67395
42.93333	2.64849
42.70000	2.49544
42.51667	2.43953
42.40000	2.73018
42.40000	2.77787
42.40000	2.78447
42.38333	2.78947
42.36667	2.77110
42.21667	2.74210
42.06667	2.55473
41.88333	2.13358
41.76667	1.81635
41.71667	1.65636
41.71667	1.67167
41.71667	1.64089
41.71667	1.67328
41.70000	2.03578
41.70000	2.39184
41.70000	2.72937
41.68333	2.76707
41.68333	2.77626
41.65000	2.77400
41.50000	2.73485
41.15000	2.48174
40.73333	2.00469
40.51667	1.43048
40.50000	1.46206
40.50000	1.58757
40.50000	1.82521
40.50000	2.03014
40.50000	2.30436
40.50000	2.38314
40.50000	2.39683
40.50000	2.41536
40.50000	2.43164
40.46667	2.44678
40.35000	2.42294
40.15000	2.31724
39.95000	2.26053
39.85000	2.17756
39.76667	2.14679
39.70000	2.05624
39.63333	1.98326
39.55000	1.89561
39.46667	1.82714
39.30000	1.68294
39.21667	1.52924
39.13333	1.45916
39.03333	1.35073
38.91667	1.40148
38.88333	1.87451
38.88333	1.84406
38.86667	1.78364
38.83333	1.78380
38.75000	1.82005
38.66667	1.80410
38.56667	1.74111
38.40000	1.66425
38.30000	1.55695
38.20000	1.47205
38.13333	1.40277
38.08333	1.34670
38.01667	1.30207
37.88333	1.22200
37.73333	1.08683
37.66667	1.00692
37.60000	0.95278
37.51667	0.83130
37.41667	0.67180
37.35000	0.59946
37.30000	0.55033
37.26667	0.53760
37.16667	0.44560
37.08333	0.31687
37.00000	0.26693
36.96667	0.23149
36.95000	0.22456
36.95000	0.22665
36.93333	0.22971
36.93333	0.25388
36.93333	0.26741
36.93333	0.29625
36.93333	0.28465
36.93333	0.24421
36.93333	0.21876
36.93333	0.20023
36.95000	0.20200
36.95000	0.21989
36.95000	0.19975
36.95000	0.20587
36.95000	0.20974
36.95000	0.18927
36.95000	0.17365
36.95000	0.15496
36.95000	0.16897
36.95000	0.17107
36.95000	0.16430
36.95000	0.15093
36.95000	0.12596
36.93333	0.11774
36.93333	0.11565
36.86667	0.09663
36.81667	0.08294
36.80000	0.09341
36.80000	0.10646
36.80000	0.11146
36.76667	0.10002
36.61667	0.07376
36.40000	0.03573
36.18333	0.01978
36.03333	0.01157
35.96667	-0.00019
35.95000	0.00190
35.95000	0.00351
35.93333	-0.00229
35.93333	0.00142
35.93333	0.00061
35.93333	0.00545
35.93333	0.00496
35.93333	0.00432
35.93333	0.00271
35.93333	0.00609
35.95000	0.00271
35.95000	0.00496
35.95000	0.00126
35.95000	0.00206
35.95000	-0.00164
35.95000	0.00045
35.95000	-0.00100
35.95000	-0.00132
35.95000	0.00480
35.95000	0.00238
35.95000	0.00367
35.95000	-0.00003
35.95000	0.00464
35.95000	0.00512
35.95000	0.00319
35.95000	0.00335
35.95000	0.00093
35.95000	0.00029
35.95000	0.00222
35.95000	0.00367
35.95000	-0.00035
35.95000	0.00287
35.95000	0.00303
35.95000	-0.00100
35.95000	0.00045
35.96667	0.00126
35.96667	0.00013
35.96667	0.00077
35.96667	0.00238
35.96667	-0.00277
35.96667	0.00013
35.96667	0.00255
35.96667	0.00303
35.96667	0.00142
35.96667	0.00174
35.96667	-0.00084
35.96667	0.00271
35.96667	0.00126
35.96667	0.00416
35.96667	0.00206
35.96667	0.00383
35.96667	0.00045
35.96667	0.00077
35.96667	-0.00019
35.96667	-0.00358
35.96667	0.00045
35.96667	0.00158
35.96667	-0.00213
35.98333	-0.00132
35.98333	-0.00003
35.98333	-0.00180
35.98333	0.00206
35.98333	-0.00019
36.00000	-0.00100
36.10000	0.00174
36.53333	0.00142
37.05000	0.00110
37.65000	0.00110
38.16667	0.00013
38.98333	0.03042
39.56667	0.07376
39.76667	0.02268
39.75000	0.00077
39.71667	0.00077
39.70000	0.00013
39.70000	0.00335
39.70000	0.00174
39.70000	-0.00052
39.70000	0.00238
39.70000	0.17639
39.70000	0.04814
39.70000	1.63799
39.70000	1.77027
39.70000	1.76398
39.70000	1.77075
39.70000	1.74175
39.70000	1.72435
39.70000	1.74852
39.70000	1.75158
39.70000	1.75254
39.70000	1.74948
39.70000	1.75093
39.70000	1.77494
39.70000	1.77864
39.70000	1.75657
39.70000	1.73208
39.70000	1.72757
39.70000	1.75625
39.70000	1.76012
39.70000	1.75496
39.70000	1.76769
39.70000	1.76672
39.70000	1.76866
39.70000	1.77139
39.70000	1.76801
39.70000	1.76801
39.70000	1.76269
39.70000	1.76124
39.70000	1.76060
39.70000	1.75996
39.70000	1.76672
39.70000	1.76141
39.70000	1.77220
39.70000	1.76527
39.70000	1.76576
39.70000	1.76688
39.70000	1.76672