Polarization of Light 'Brewsters' Data File Wed, Nov 19, 2025 7:47 PM
Sensor Position (Degrees)	Light Intensity (Volts)
180.00000	0.44609
180.00000	0.45785
180.00000	0.45334
180.00000	0.46929
180.00000	0.46880
179.98333	0.49668
179.96667	0.54227
179.96667	0.56708
179.96667	0.57498
179.96667	0.57353
179.96667	0.57256
179.96667	0.57836
179.96667	0.57562
179.96667	0.57949
179.96667	0.57755
179.96667	0.58094
179.96667	0.58142
179.96667	0.59205
179.98333	0.58223
179.98333	0.58835
179.98333	0.58045
179.98333	0.58351
179.98333	0.58464
179.98333	0.58239
179.98333	0.58593
179.98333	0.58400
179.98333	0.58029
179.96667	0.58931
179.96667	0.59366
179.96667	0.58432
179.95000	0.59189
179.95000	0.58432
179.95000	0.58432
179.93333	0.58432
179.93333	0.58174
179.88333	0.57949
179.78333	0.58174
179.73333	0.58496
179.68333	0.58223
179.65000	0.58335
179.61667	0.58158
179.60000	0.57707
179.58333	0.57884
179.56667	0.57675
179.51667	0.57739
179.45000	0.58061
179.38333	0.58110
179.35000	0.58464
179.30000	0.58303
179.21667	0.58915
179.08333	0.58384
178.96667	0.56450
178.88333	0.50538
178.83333	0.46671
178.78333	0.44399
178.73333	0.43271
178.71667	0.45720
178.70000	0.50183
178.66667	0.55033
178.65000	0.56660
178.61667	0.57336
178.58333	0.57256
178.53333	0.56885
178.48333	0.55339
178.41667	0.55016
178.36667	0.53840
178.30000	0.53921
178.25000	0.56450
178.15000	0.57949
178.01667	0.52326
177.95000	0.44270
177.91667	0.45253
177.90000	0.49378
177.86667	0.52052
177.83333	0.55629
177.78333	0.57562
177.73333	0.58448
177.65000	0.58964
177.58333	0.58464
177.55000	0.57884
177.53333	0.58239
177.51667	0.58206
177.50000	0.58368
177.46667	0.58400
177.43333	0.57481
177.36667	0.57288
177.31667	0.57481
177.23333	0.57143
177.15000	0.55999
177.08333	0.56225
177.00000	0.54823
176.88333	0.52809
176.78333	0.49168
176.70000	0.42128
176.61667	0.37842
176.56667	0.34378
176.53333	0.37069
176.53333	0.43271
176.51667	0.50811
176.51667	0.57063
176.51667	0.58770
176.51667	0.58609
176.51667	0.58770
176.51667	0.58335
176.51667	0.58448
176.51667	0.57884
176.51667	0.58206
176.51667	0.57659
176.50000	0.57900
176.50000	0.58754
176.50000	0.58770
176.50000	0.58915
176.50000	0.58368
176.50000	0.58964
176.50000	0.58980
176.48333	0.58835
176.48333	0.59302
176.48333	0.59012
176.48333	0.58883
176.46667	0.58545
176.46667	0.58658
176.43333	0.59334
176.36667	0.59028
176.33333	0.59366
176.28333	0.59093
176.26667	0.59093
176.23333	0.59366
176.20000	0.58948
176.16667	0.59834
176.15000	0.59012
176.11667	0.59689
176.06667	0.59060
176.00000	0.59624
175.96667	0.59141
175.91667	0.58722
175.88333	0.59221
175.86667	0.59205
175.83333	0.59656
175.78333	0.59109
175.75000	0.59544
175.70000	0.59656
175.65000	0.59479
175.56667	0.59415
175.50000	0.58803
175.45000	0.58867
175.43333	0.58931
175.41667	0.58674
175.41667	0.58641
175.40000	0.58513
175.40000	0.59447
175.40000	0.59818
175.38333	0.59560
175.36667	0.59834
175.36667	0.59495
175.33333	0.59383
175.30000	0.59383
175.26667	0.59189
175.23333	0.59463
175.21667	0.59705
175.20000	0.56998
175.16667	0.46397
175.13333	0.43626
175.11667	0.43126
175.08333	0.45221
175.05000	0.47815
174.98333	0.54114
174.88333	0.57353
174.76667	0.59608
174.70000	0.59705
174.66667	0.59157
174.65000	0.58722
174.63333	0.58625
174.61667	0.59689
174.58333	0.59721
174.55000	0.59447
174.46667	0.59785
174.38333	0.58641
174.33333	0.58013
174.30000	0.58722
174.30000	0.59205
174.28333	0.59930
174.23333	0.59479
174.15000	0.57562
174.03333	0.55548
173.96667	0.54227
173.93333	0.53373
173.88333	0.53389
173.85000	0.53824
173.81667	0.55226
173.80000	0.56048
173.78333	0.59689
173.78333	0.56982
173.76667	0.48056
173.75000	0.47718
173.73333	0.48943
173.71667	0.53115
173.68333	0.56434
173.61667	0.59125
173.55000	0.59882
173.48333	0.60349
173.43333	0.60526
173.41667	0.59818
173.40000	0.59334
173.38333	0.59173
173.36667	0.59334
173.36667	0.59689
173.35000	0.60349
173.30000	0.60285
173.23333	0.59689
173.15000	0.57546
173.03333	0.54807
172.96667	0.49281
172.95000	0.48540
172.93333	0.48105
172.93333	0.48894
172.93333	0.48363
172.91667	0.48620
172.90000	0.47058
172.88333	0.45382
172.85000	0.46413
172.81667	0.48556
172.80000	0.52423
172.78333	0.53373
172.78333	0.55983
172.78333	0.59769
172.78333	0.59431
172.78333	0.59479
172.78333	0.59399
172.76667	0.59511
172.76667	0.59656
172.78333	0.59914
172.78333	0.60043
172.80000	0.60398
172.81667	0.59818
172.81667	0.60575
172.81667	0.60027
172.81667	0.60639
172.81667	0.60253
172.81667	0.60671
172.81667	0.60091
172.81667	0.60188
172.83333	0.59399
172.83333	0.58738
172.83333	0.58899
172.83333	0.58561
172.83333	0.59495
172.83333	0.59995
172.83333	0.59366
172.81667	0.59898
172.81667	0.59576
172.81667	0.59366
172.80000	0.58931
172.80000	0.58674
172.80000	0.57417
172.78333	0.57610
172.78333	0.57272
172.78333	0.57804
172.76667	0.57498
172.73333	0.58754
172.68333	0.58496
172.58333	0.59286
172.51667	0.59785
172.45000	0.59383
172.41667	0.58690
172.38333	0.58867
172.33333	0.59624
172.26667	0.58964
172.16667	0.59028
172.10000	0.59205
172.05000	0.59640
172.01667	0.58899
171.96667	0.58883
171.91667	0.58980
171.83333	0.58545
171.76667	0.59109
171.71667	0.58851
171.68333	0.58819
171.65000	0.58738
171.61667	0.59012
171.56667	0.58835
171.50000	0.58448
171.45000	0.59109
171.36667	0.58851
171.26667	0.57707
171.15000	0.54388
171.06667	0.51601
171.05000	0.51198
171.05000	0.52648
171.03333	0.54259
171.03333	0.56773
171.03333	0.58351
171.01667	0.59189
171.01667	0.59366
171.00000	0.58835
170.98333	0.59205
170.96667	0.58851
170.95000	0.58996
170.93333	0.59125
170.93333	0.58786
170.91667	0.58593
170.91667	0.59576
170.90000	0.59173
170.88333	0.59173
170.83333	0.59109
170.80000	0.59302
170.76667	0.59157
170.75000	0.58803
170.73333	0.59270
170.68333	0.59076
170.60000	0.59238
170.51667	0.58641
170.40000	0.58239
170.30000	0.58867
170.20000	0.58754
170.06667	0.59076
169.96667	0.58609
169.90000	0.57981
169.86667	0.57981
169.85000	0.57401
169.81667	0.57916
169.80000	0.58287
169.76667	0.57224
169.73333	0.58223
169.66667	0.58819
169.56667	0.58738
169.51667	0.58819
169.50000	0.59109
169.48333	0.59560
169.48333	0.59238
169.48333	0.58706
169.46667	0.59366
169.46667	0.59141
169.45000	0.58641
169.45000	0.58915
169.41667	0.57949
169.38333	0.58319
169.33333	0.59076
169.31667	0.58496
169.30000	0.58513
169.28333	0.58400
169.25000	0.59157
169.21667	0.59028
169.18333	0.59221
169.13333	0.59205
169.10000	0.59399
169.08333	0.59028
169.08333	0.59560
169.06667	0.58722
169.06667	0.60091
169.06667	0.60027
169.05000	0.59141
169.03333	0.59399
169.03333	0.59157
169.01667	0.58754
169.00000	0.59012
169.00000	0.58609
168.98333	0.58625
168.96667	0.59286
168.95000	0.59141
168.90000	0.59205
168.86667	0.58883
168.80000	0.59125
168.76667	0.59318
168.71667	0.59238
168.68333	0.59238
168.63333	0.58690
168.56667	0.58770
168.53333	0.58786
168.48333	0.57916
168.45000	0.57788
168.41667	0.57046
168.38333	0.56193
168.35000	0.55403
168.30000	0.56434
168.28333	0.57675
168.28333	0.58561
168.26667	0.59141
168.26667	0.58819
168.26667	0.59028
168.25000	0.58964
168.21667	0.59157
168.18333	0.59221
168.15000	0.58964
168.11667	0.58174
168.10000	0.59125
168.08333	0.58529
168.05000	0.59076
168.01667	0.58641
168.00000	0.58029
167.96667	0.58287
167.95000	0.58480
167.91667	0.57916
167.90000	0.58045
167.88333	0.57771
167.85000	0.58126
167.80000	0.57755
167.73333	0.58803
167.65000	0.58432
167.56667	0.58513
167.48333	0.59028
167.36667	0.58722
167.26667	0.58351
167.20000	0.58513
167.13333	0.58142
167.08333	0.58351
167.00000	0.58513
166.93333	0.57788
166.90000	0.58803
166.88333	0.59350
166.88333	0.58625
166.86667	0.59286
166.86667	0.59093
166.86667	0.58577
166.85000	0.58883
166.85000	0.59189
166.85000	0.58738
166.83333	0.58464
166.80000	0.58464
166.76667	0.57675
166.71667	0.58045
166.68333	0.57868
166.66667	0.58287
166.63333	0.58255
166.61667	0.58577
166.58333	0.59125
166.56667	0.58996
166.55000	0.58400
166.51667	0.58593
166.48333	0.58529
166.45000	0.58174
166.40000	0.58835
166.36667	0.58432
166.33333	0.57997
166.28333	0.58738
166.23333	0.58126
166.18333	0.58464
166.13333	0.58078
166.08333	0.57981
166.05000	0.58319
166.00000	0.58239
165.96667	0.58577
165.95000	0.58593
165.93333	0.58110
165.86667	0.58819
165.80000	0.58351
165.76667	0.57578
165.73333	0.56579
165.71667	0.56885
165.71667	0.58319
165.71667	0.58239
165.70000	0.59125
165.71667	0.58094
165.71667	0.56515
165.71667	0.56402
165.71667	0.56305
165.71667	0.56611
165.71667	0.57514
165.71667	0.57514
165.71667	0.58190
165.71667	0.58690
165.71667	0.59012
165.71667	0.58867
165.71667	0.59141
165.71667	0.58819
165.71667	0.59044
165.71667	0.59431
165.71667	0.59350
165.71667	0.59447
165.71667	0.59656
165.71667	0.58416
165.71667	0.58867
165.71667	0.59060
165.70000	0.58867
165.66667	0.57965
165.60000	0.58706
165.53333	0.58206
165.48333	0.58271
165.43333	0.57916
165.38333	0.58319
165.33333	0.57675
165.26667	0.58480
165.21667	0.58206
165.18333	0.58738
165.13333	0.58496
165.08333	0.58658
165.03333	0.59189
164.98333	0.59254
164.91667	0.60108
164.85000	0.58174
164.80000	0.57336
164.78333	0.57208
164.76667	0.56756
164.76667	0.57208
164.75000	0.58496
164.71667	0.58641
164.66667	0.59109
164.63333	0.58899
164.60000	0.59431
164.55000	0.58658
164.53333	0.59592
164.51667	0.59012
164.48333	0.58464
164.46667	0.58674
164.43333	0.58593
164.40000	0.58319
164.36667	0.58061
164.35000	0.58351
164.33333	0.58561
164.31667	0.58851
164.31667	0.58658
164.30000	0.58738
164.28333	0.58287
164.25000	0.58384
164.21667	0.58851
164.16667	0.58706
164.11667	0.58770
164.06667	0.58190
164.00000	0.59415
163.83333	0.59576
163.68333	0.57530
163.61667	0.55951
163.60000	0.55033
163.58333	0.55532
163.56667	0.55355
163.56667	0.56885
163.56667	0.58206
163.55000	0.57723
163.53333	0.58738
163.51667	0.59366
163.50000	0.59318
163.48333	0.59463
163.46667	0.59850
163.45000	0.58915
163.45000	0.59093
163.45000	0.59673
163.43333	0.59366
163.43333	0.59624
163.43333	0.58867
163.41667	0.59334
163.41667	0.59334
163.40000	0.59141
163.38333	0.58754
163.36667	0.59415
163.33333	0.59173
163.30000	0.59141
163.28333	0.59463
163.28333	0.59576
163.26667	0.59012
163.25000	0.59801
163.23333	0.59769
163.23333	0.59254
163.20000	0.59366
163.18333	0.59785
163.16667	0.59302
163.15000	0.59979
163.15000	0.59270
163.13333	0.59705
163.11667	0.58899
163.10000	0.59431
163.08333	0.59415
163.06667	0.58867
163.05000	0.59141
163.03333	0.59656
163.01667	0.59544
163.01667	0.59189
163.00000	0.58948
162.98333	0.59511
162.98333	0.59205
162.96667	0.58996
162.96667	0.58803
162.96667	0.59350
162.95000	0.58964
162.95000	0.59753
162.95000	0.59028
162.93333	0.59431
162.91667	0.59544
162.90000	0.59979
162.88333	0.59189
162.88333	0.58851
162.88333	0.58609
162.86667	0.57256
162.86667	0.56321
162.85000	0.55484
162.83333	0.54130
162.81667	0.53293
162.78333	0.52664
162.75000	0.52358
162.71667	0.52938
162.70000	0.51810
162.70000	0.52777
162.70000	0.52213
162.68333	0.52890
162.68333	0.53228
162.68333	0.54340
162.66667	0.54936
162.66667	0.56031
162.66667	0.57288
162.65000	0.58094
162.65000	0.59028
162.65000	0.59189
162.63333	0.59415
162.63333	0.59189
162.61667	0.59721
162.55000	0.59399
162.46667	0.59141
162.41667	0.59012
162.38333	0.59044
162.38333	0.59350
162.38333	0.59093
162.36667	0.58835
162.36667	0.59302
162.36667	0.59173
162.36667	0.59656
162.36667	0.59270
162.35000	0.59141
162.35000	0.59141
162.33333	0.59656
162.31667	0.59447
162.31667	0.58899
162.30000	0.59383
162.28333	0.59383
162.25000	0.59205
162.23333	0.59689
162.20000	0.59801
162.18333	0.59511
162.16667	0.59946
162.15000	0.59801
162.15000	0.59963
162.13333	0.59705
162.10000	0.59640
162.06667	0.59769
162.01667	0.59544
161.98333	0.59963
161.98333	0.59415
161.96667	0.59238
161.95000	0.59383
161.95000	0.59528
161.95000	0.59383
161.95000	0.59979
161.93333	0.59898
161.93333	0.59624
161.93333	0.59608
161.93333	0.59560
161.93333	0.59511
161.93333	0.59270
161.91667	0.59028
161.91667	0.59495
161.90000	0.58851
161.90000	0.59479
161.88333	0.59463
161.88333	0.59286
161.88333	0.59624
161.86667	0.59463
161.85000	0.59656
161.83333	0.59205
161.81667	0.59238
161.78333	0.59689
161.75000	0.60156
161.71667	0.59431
161.70000	0.59334
161.68333	0.59592
161.66667	0.59624
161.65000	0.59463
161.65000	0.59640
161.63333	0.61235
161.58333	0.60929
161.53333	0.60591
161.48333	0.60945
161.48333	0.61106
161.46667	0.60575
161.46667	0.61010
161.46667	0.60430
161.46667	0.61010
161.46667	0.60655
161.46667	0.60623
161.46667	0.61187
161.46667	0.60800
161.48333	0.60881
161.48333	0.61235
161.48333	0.60671
161.48333	0.61203
161.48333	0.60800
161.48333	0.60591
161.48333	0.60929
161.48333	0.60671
161.48333	0.61380
161.48333	0.60720
161.48333	0.61429
161.48333	0.61026
161.48333	0.61541
161.48333	0.60929
161.48333	0.60945
161.48333	0.60398
161.50000	0.60462
161.50000	0.60736
161.50000	0.60575
161.50000	0.60655
161.50000	0.60349
161.50000	0.60784
161.50000	0.60559
161.48333	0.60204
161.48333	0.56966
161.46667	0.52809
161.41667	0.43400
161.41667	0.45801
161.41667	0.53244
161.43333	0.57449
161.45000	0.60430
161.45000	0.61654
161.45000	0.62621
161.46667	0.62814
161.51667	0.62830
161.55000	0.63958
161.56667	0.64264
161.56667	0.64361
161.56667	0.63749
161.58333	0.63491
161.58333	0.64007
161.58333	0.63652
161.58333	0.64248
161.58333	0.62718
161.58333	0.61783
161.60000	0.61251
161.60000	0.60768
161.58333	0.61461
161.58333	0.60800
161.58333	0.60704
161.56667	0.60688
161.56667	0.61300
161.55000	0.60961
161.53333	0.60720
161.50000	0.59753
161.43333	0.59463
161.33333	0.59383
161.25000	0.59608
161.18333	0.59979
161.13333	0.59705
161.06667	0.60607
160.98333	0.60430
160.91667	0.60333
160.88333	0.59850
160.85000	0.59608
160.83333	0.59930
160.75000	0.58448
160.63333	0.55758
160.50000	0.50457
160.40000	0.47460
160.33333	0.43610
160.28333	0.42530
160.25000	0.41032
160.23333	0.38664
160.18333	0.35780
160.15000	0.33508
160.15000	0.31800
160.15000	0.32380
160.15000	0.35167
160.15000	0.38744
160.15000	0.46606
160.15000	0.51681
160.15000	0.54340
160.15000	0.58174
160.13333	0.60285
160.13333	0.60043
160.13333	0.59431
160.13333	0.55161
160.13333	0.52922
160.13333	0.54888
160.13333	0.56934
160.13333	0.58948
160.13333	0.59656
160.13333	0.59592
160.13333	0.60510
160.13333	0.59286
160.13333	0.43143
160.13333	0.18621
160.13333	0.05636
160.13333	0.03912
160.13333	0.26355
160.13333	0.30044
160.13333	0.28932
160.13333	0.28755
160.13333	0.22730
160.13333	0.18476
160.13333	0.35377
160.13333	0.54533
160.13333	0.60011
160.13333	0.55258
160.13333	0.44560
160.11667	0.38889
160.11667	0.21392
160.05000	0.15447
159.95000	0.02671
159.88333	0.00883
159.85000	0.00947
159.80000	0.03686
159.73333	0.46429
159.71667	0.57385
159.70000	0.59592
159.70000	0.59189
159.70000	0.58287
159.70000	0.58899
159.70000	0.59060
159.70000	0.60220
159.70000	0.60381
159.70000	0.60623
159.70000	0.60075
159.70000	0.60124
159.70000	0.59479
159.70000	0.58303
159.70000	0.57755
159.70000	0.57884
159.70000	0.59141
159.70000	0.59189
159.70000	0.60462
159.70000	0.60398
159.70000	0.60575
159.70000	0.60591
159.70000	0.60736
159.70000	0.60365
159.70000	0.59914
159.70000	0.59673
159.70000	0.60269
159.68333	0.59979
159.68333	0.59479
159.68333	0.59914
159.68333	0.59689
159.68333	0.59963
159.68333	0.59576
159.68333	0.59431
159.68333	0.59511
159.68333	0.58948
159.68333	0.57626
159.68333	0.56305
159.68333	0.54275
159.68333	0.48959
159.68333	0.41000
159.68333	0.30817
159.68333	0.39163
159.68333	0.57675
159.70000	0.59060
159.70000	0.59093
159.70000	0.58513
159.70000	0.57401
159.70000	0.57514
159.70000	0.57272
159.71667	0.57369
159.71667	0.56418
159.71667	0.55903
159.73333	0.53808
159.73333	0.52680
159.73333	0.51359
159.75000	0.49796
159.75000	0.48395
159.76667	0.47186
159.78333	0.46478
159.81667	0.41306
159.86667	0.36199
159.91667	0.28642
159.95000	0.14722
159.98333	0.04073
160.00000	0.02671
160.00000	0.04379
160.00000	0.23084
160.00000	0.49539
160.00000	0.59238
160.00000	0.60220
160.00000	0.59946
160.00000	0.59173
160.00000	0.58867
160.00000	0.58948
160.00000	0.58883
160.00000	0.60027
159.98333	0.61235
159.98333	0.59447
159.98333	0.59753
159.98333	0.60301
160.00000	0.60285
160.00000	0.60881
160.00000	0.60913
160.00000	0.60414
160.00000	0.60994
160.00000	0.59898
160.00000	0.61010
160.00000	0.61042
160.00000	0.60913
160.01667	0.61203
160.01667	0.60543
160.05000	0.60108
160.05000	0.59624
160.08333	0.59173
160.10000	0.59463
160.11667	0.59012
160.16667	0.59350
160.23333	0.59060
160.30000	0.59399
160.35000	0.59592
160.38333	0.60526
160.41667	0.59930
160.45000	0.59946
160.48333	0.59656
160.55000	0.59302
160.61667	0.59995
160.71667	0.59511
160.81667	0.59608
160.96667	0.59028
161.06667	0.59753
161.10000	0.59656
161.11667	0.59769
161.15000	0.59173
161.16667	0.59189
161.25000	0.58400
161.33333	0.56708
161.36667	0.56386
161.40000	0.56209
161.41667	0.56257
161.41667	0.57079
161.41667	0.57707
161.41667	0.58480
161.41667	0.58545
161.41667	0.59141
161.41667	0.59737
161.41667	0.60140
161.41667	0.60430
161.40000	0.59834
161.40000	0.59640
161.40000	0.60075
161.38333	0.59769
161.36667	0.60414
161.35000	0.60027
161.33333	0.60140
161.30000	0.59576
161.28333	0.58174
161.25000	0.56740
161.20000	0.55564
161.08333	0.56837
161.00000	0.57691
160.91667	0.57691
160.85000	0.57916
160.78333	0.58980
160.70000	0.59463
160.61667	0.60172
160.55000	0.59979
160.48333	0.60381
160.38333	0.60526
160.31667	0.60607
160.25000	0.61171
160.20000	0.60140
160.15000	0.61155
160.10000	0.60655
160.00000	0.60349
159.90000	0.60800
159.80000	0.59689
159.68333	0.58835
159.56667	0.58400
159.43333	0.57997
159.31667	0.56064
159.21667	0.56160
159.10000	0.56773
159.01667	0.57063
158.93333	0.59366
158.85000	0.60349
158.75000	0.61574
158.58333	0.60768
158.48333	0.60365
158.41667	0.61139
158.36667	0.59946
158.35000	0.60027
158.33333	0.59721
158.33333	0.60204
158.33333	0.59656
158.33333	0.59576
158.33333	0.59528
158.33333	0.59592
158.33333	0.60333
158.35000	0.60011
158.35000	0.60333
158.35000	0.59528
158.33333	0.60349
158.23333	0.60494
158.13333	0.58996
158.11667	0.42224
158.10000	0.02365
158.01667	0.00931
157.80000	0.03718
157.45000	0.35844
157.11667	0.57353
156.90000	0.61783
156.83333	0.62057
156.71667	0.61509
156.63333	0.62444
156.58333	0.61703
156.56667	0.61912
156.56667	0.61284
156.56667	0.60736
156.56667	0.60236
156.56667	0.58593
156.56667	0.58593
156.56667	0.58609
156.56667	0.59673
156.56667	0.62073
156.56667	0.61654
156.56667	0.62009
156.56667	0.61187
156.56667	0.61928
156.56667	0.61574
156.56667	0.61203
156.56667	0.60752
156.58333	0.61203
156.58333	0.60269
156.60000	0.60671
156.60000	0.59818
156.60000	0.60639
156.61667	0.60430
156.63333	0.59834
156.71667	0.60188
156.90000	0.60671
157.10000	0.60526
157.26667	0.60317
157.35000	0.60639
157.38333	0.60365
157.43333	0.59914
157.48333	0.60526
157.56667	0.60704
157.65000	0.60913
157.73333	0.61123
157.83333	0.60671
157.90000	0.59753
158.00000	0.60607
158.06667	0.60140
158.11667	0.60543
158.15000	0.60462
158.23333	0.60494
158.33333	0.60736
158.38333	0.60688
158.46667	0.60688
158.58333	0.60398
158.70000	0.60301
158.80000	0.59624
158.85000	0.59834
158.93333	0.60156
159.00000	0.59076
159.03333	0.57900
159.05000	0.56112
159.06667	0.54807
159.06667	0.55274
159.06667	0.56321
159.06667	0.57820
159.06667	0.58303
159.08333	0.57691
159.11667	0.55081
159.20000	0.54050
159.25000	0.53615
159.26667	0.53808
159.28333	0.53421
159.28333	0.54581
159.28333	0.58303
159.30000	0.59205
159.30000	0.59608
159.33333	0.59318
159.38333	0.57256
159.46667	0.55806
159.56667	0.50666
159.65000	0.46333
159.75000	0.50022
159.88333	0.57191
159.95000	0.59882
160.00000	0.60398
160.05000	0.60140
160.11667	0.60398
160.16667	0.58980
160.20000	0.58625
160.21667	0.58368
160.23333	0.57965
160.23333	0.58561
160.23333	0.58674
160.25000	0.58722
160.25000	0.58641
160.28333	0.59173
160.30000	0.58561
160.30000	0.58851
160.30000	0.59157
160.30000	0.59463
160.30000	0.60140
160.30000	0.60317
160.30000	0.60816
160.30000	0.60494
160.31667	0.60204
160.35000	0.59785
160.41667	0.59544
160.48333	0.60140
160.55000	0.59528
160.61667	0.59560
160.65000	0.59302
160.70000	0.58996
160.76667	0.59221
160.83333	0.58980
160.88333	0.58529
160.91667	0.58722
160.91667	0.59656
160.91667	0.59399
160.91667	0.60398
160.91667	0.60559
160.91667	0.59850
160.91667	0.59737
160.91667	0.60091
160.93333	0.60011
160.93333	0.60108
160.93333	0.59898
160.93333	0.60494
160.93333	0.59946
160.93333	0.59963
160.93333	0.59528
160.93333	0.59673
160.91667	0.59109
160.91667	0.58835
160.91667	0.59286
160.91667	0.59238
160.91667	0.59093
160.90000	0.58899
160.88333	0.59205
160.85000	0.58883
160.78333	0.59286
160.75000	0.60559
160.68333	0.60172
160.61667	0.60623
160.55000	0.60768
160.48333	0.60414
160.45000	0.59979
160.43333	0.60108
160.41667	0.60768
160.38333	0.59673
160.36667	0.60236
160.31667	0.60655
160.26667	0.60494
160.21667	0.59979
160.16667	0.60655
160.08333	0.60285
160.00000	0.59721
159.93333	0.58851
159.85000	0.57369
159.80000	0.56225
159.76667	0.56354
159.75000	0.57530
159.73333	0.57804
159.71667	0.59141
159.70000	0.59270
159.68333	0.60220
159.66667	0.60768
159.63333	0.60301
159.61667	0.60188
159.58333	0.60639
159.53333	0.60414
159.48333	0.59624
159.43333	0.60027
159.40000	0.59769
159.35000	0.60075
159.28333	0.60381
159.20000	0.60188
159.15000	0.60075
159.10000	0.59656
159.03333	0.59479
158.98333	0.59109
158.95000	0.59302
158.91667	0.58819
158.90000	0.59028
158.90000	0.59818
158.90000	0.60510
158.90000	0.60285
158.88333	0.59898
158.88333	0.60091
158.88333	0.60140
158.88333	0.60365
158.86667	0.60285
158.86667	0.60156
158.80000	0.60591
158.73333	0.60398
158.68333	0.59753
158.63333	0.60543
158.56667	0.59801
158.50000	0.60140
158.45000	0.59431
158.41667	0.59318
158.40000	0.59479
158.38333	0.59560
158.38333	0.60220
158.38333	0.59882
158.38333	0.60011
158.38333	0.60091
158.38333	0.60430
158.38333	0.60494
158.38333	0.60800
158.38333	0.59979
158.38333	0.59866
158.38333	0.59286
158.38333	0.59350
158.38333	0.58513
158.36667	0.59012
158.36667	0.59205
158.36667	0.59914
158.35000	0.60220
158.30000	0.60688
158.25000	0.59995
158.21667	0.59189
158.20000	0.59882
158.18333	0.59608
158.16667	0.59431
158.15000	0.58351
158.13333	0.58400
158.10000	0.58029
158.05000	0.58061
158.00000	0.58432
157.95000	0.58255
157.88333	0.57417
157.83333	0.57385
157.75000	0.56015
157.65000	0.54453
157.58333	0.52696
157.53333	0.52922
157.50000	0.54066
157.46667	0.56064
157.45000	0.57143
157.43333	0.58287
157.41667	0.59930
157.40000	0.59995
157.40000	0.60333
157.40000	0.59721
157.40000	0.60140
157.38333	0.59753
157.33333	0.59656
157.28333	0.59560
157.23333	0.58754
157.13333	0.57997
157.01667	0.58094
156.93333	0.57723
156.88333	0.57014
156.85000	0.56998
156.83333	0.57530
156.83333	0.58480
156.83333	0.58931
156.83333	0.58803
156.83333	0.58996
156.83333	0.59189
156.81667	0.60333
156.81667	0.60639
156.80000	0.60349
156.80000	0.60043
156.78333	0.59431
156.76667	0.59544
156.73333	0.59511
156.70000	0.58964
156.66667	0.59495
156.61667	0.59044
156.56667	0.59415
156.51667	0.60720
156.46667	0.60156
156.40000	0.60349
156.36667	0.60220
156.33333	0.60172
156.25000	0.60333
156.18333	0.59270
156.15000	0.60285
156.11667	0.60736
156.08333	0.60446
156.03333	0.60478
156.01667	0.60688
155.98333	0.60671
155.95000	0.60575
155.93333	0.60768
155.91667	0.60865
155.91667	0.60301
155.90000	0.60510
155.86667	0.60156
155.83333	0.60929
155.80000	0.60655
155.76667	0.60929
155.70000	0.60381
155.68333	0.60430
155.66667	0.60543
155.65000	0.59898
155.60000	0.58770
155.50000	0.59399
155.35000	0.60816
155.18333	0.61171
155.06667	0.62121
154.98333	0.62379
154.91667	0.62444
154.80000	0.60945
154.70000	0.58738
154.61667	0.58029
154.56667	0.56934
154.48333	0.56773
154.36667	0.54614
154.26667	0.55935
154.20000	0.56225
154.11667	0.54565
154.06667	0.54549
154.03333	0.56531
154.00000	0.60671
153.96667	0.62992
153.91667	0.62814
153.88333	0.62428
153.83333	0.62234
153.78333	0.62653
153.75000	0.62476
153.73333	0.62250
153.71667	0.61686
153.70000	0.60994
153.66667	0.61654
153.61667	0.61654
153.55000	0.61010
153.48333	0.61123
153.45000	0.61010
153.40000	0.60897
153.36667	0.59689
153.33333	0.59850
153.26667	0.59544
153.20000	0.57659
153.11667	0.56031
153.06667	0.54388
153.03333	0.54179
153.00000	0.55500
152.93333	0.59963
152.88333	0.62379
152.81667	0.63362
152.78333	0.62331
152.75000	0.62895
152.73333	0.62685
152.71667	0.62444
152.68333	0.63040
152.66667	0.63298
152.65000	0.62863
152.61667	0.62718
152.55000	0.63684
152.50000	0.63539
152.41667	0.63217
152.31667	0.62782
152.25000	0.62975
152.20000	0.62379
152.18333	0.63249
152.18333	0.62895
152.16667	0.61848
152.13333	0.61670
152.10000	0.62685
152.06667	0.62460
152.05000	0.62879
152.01667	0.62830
152.00000	0.62782
151.98333	0.63008
151.95000	0.63362
151.90000	0.63120
151.81667	0.63120
151.71667	0.62154
151.63333	0.61815
151.56667	0.63249
151.48333	0.63346
151.40000	0.62685
151.35000	0.62718
151.31667	0.62524
151.30000	0.62460
151.28333	0.62508
151.28333	0.63169
151.26667	0.62814
151.25000	0.62734
151.21667	0.63008
151.18333	0.62734
151.13333	0.62234
151.08333	0.62073
151.03333	0.60897
150.98333	0.59995
150.96667	0.58786
150.95000	0.59334
150.93333	0.59689
150.93333	0.60349
150.93333	0.62363
150.93333	0.62702
150.91667	0.63056
150.91667	0.62798
150.91667	0.63249
150.91667	0.63539
150.91667	0.64135
150.91667	0.62847
150.90000	0.63282
150.90000	0.63088
150.90000	0.63249
150.86667	0.63362
150.83333	0.62943
150.81667	0.63572
150.80000	0.63282
150.76667	0.62750
150.73333	0.62444
150.71667	0.60253
150.68333	0.59254
150.66667	0.58480
150.60000	0.59544
150.53333	0.61284
150.48333	0.62315
150.45000	0.63056
150.41667	0.63604
150.38333	0.62347
150.35000	0.61574
150.35000	0.61864
150.35000	0.61590
150.35000	0.62798
150.35000	0.62992
150.35000	0.62379
150.35000	0.62879
150.35000	0.63539
150.35000	0.63362
150.35000	0.63749
150.35000	0.63797
150.35000	0.64152
150.35000	0.63700
150.35000	0.63958
150.35000	0.63636
150.35000	0.63668
150.35000	0.63781
150.35000	0.63555
150.35000	0.63040
150.35000	0.64071
150.35000	0.63910
150.36667	0.64409
150.36667	0.63185
150.36667	0.64264
150.36667	0.63459
150.36667	0.64135
150.36667	0.63507
150.36667	0.64119
150.36667	0.64570
150.36667	0.64264
150.35000	0.63894
150.35000	0.64152
150.35000	0.64168
150.35000	0.64071
150.35000	0.64184
150.35000	0.64007
150.35000	0.63829
150.33333	0.63346
150.33333	0.63894
150.33333	0.64409
150.31667	0.64297
150.28333	0.63926
150.23333	0.64313
150.18333	0.63652
150.13333	0.64216
150.10000	0.63942
150.08333	0.64458
150.06667	0.63733
150.05000	0.64103
150.05000	0.64297
150.03333	0.64297
150.01667	0.64007
150.00000	0.63636
150.00000	0.63926
150.00000	0.64248
150.00000	0.63491
149.98333	0.64732
149.98333	0.64248
149.98333	0.63813
149.98333	0.64119
149.98333	0.64409
149.98333	0.64796
149.98333	0.63926
149.98333	0.63684
149.98333	0.63894
149.98333	0.63990
149.98333	0.64264
149.98333	0.63878
149.96667	0.64071
149.95000	0.63394
149.86667	0.64329
149.78333	0.64023
149.73333	0.63749
149.70000	0.63233
149.65000	0.64313
149.61667	0.64796
149.58333	0.63137
149.55000	0.63636
149.51667	0.63233
149.48333	0.63620
149.45000	0.63588
149.38333	0.62524
149.28333	0.60269
149.18333	0.57562
149.08333	0.53679
149.03333	0.50570
149.00000	0.50376
148.96667	0.50763
148.95000	0.52938
148.95000	0.54646
148.95000	0.60478
148.95000	0.64264
148.93333	0.64458
148.93333	0.64313
148.93333	0.64732
148.93333	0.65150
148.91667	0.65038
148.86667	0.64393
148.80000	0.64635
148.73333	0.63813
148.65000	0.62750
148.58333	0.62411
148.51667	0.62089
148.46667	0.62637
148.43333	0.64667
148.43333	0.64957
148.41667	0.64587
148.40000	0.65263
148.40000	0.64941
148.36667	0.64683
148.28333	0.64264
148.21667	0.63394
148.18333	0.63555
148.13333	0.62830
148.03333	0.61686
147.96667	0.60994
147.93333	0.61123
147.91667	0.61348
147.88333	0.62782
147.85000	0.63636
147.78333	0.63604
147.73333	0.64071
147.66667	0.63829
147.58333	0.64828
147.48333	0.65440
147.35000	0.65440
147.25000	0.64828
147.18333	0.64506
147.11667	0.63668
147.08333	0.63572
147.05000	0.62798
147.03333	0.62911
147.01667	0.62879
147.00000	0.62557
146.93333	0.61606
146.81667	0.57949
146.80000	0.55451
146.78333	0.50199
146.78333	0.50860
146.76667	0.54775
146.73333	0.55097
146.70000	0.56289
146.66667	0.57498
146.63333	0.58255
146.60000	0.58174
146.55000	0.56724
146.48333	0.52906
146.41667	0.50473
146.31667	0.47509
146.26667	0.46574
146.26667	0.52149
146.26667	0.64909
146.28333	0.65424
146.28333	0.63507
146.28333	0.62041
146.28333	0.65569
146.28333	0.66794
146.28333	0.67374
146.30000	0.67744
146.30000	0.68389
146.31667	0.67390
146.31667	0.56128
146.33333	0.52584
146.40000	0.54163
146.50000	0.56515
146.58333	0.62830
146.63333	0.65698
146.63333	0.67358
146.63333	0.67889
146.63333	0.68598
146.65000	0.68727
146.65000	0.68630
146.65000	0.68083
146.66667	0.68034
146.66667	0.67954
146.66667	0.66246
146.66667	0.65811
146.66667	0.66214
146.66667	0.66278
146.65000	0.66053
146.65000	0.66552
146.65000	0.66407
146.65000	0.65972
146.65000	0.66600
146.65000	0.66649
146.65000	0.66810
146.65000	0.66407
146.63333	0.66327
146.63333	0.65859
146.63333	0.66343
146.61667	0.66230
146.60000	0.66552
146.58333	0.66568
146.53333	0.66165
146.51667	0.65602
146.50000	0.65070
146.46667	0.65473
146.43333	0.64732
146.38333	0.65392
146.31667	0.65730
146.26667	0.65859
146.21667	0.65650
146.18333	0.65859
146.15000	0.66294
146.10000	0.65344
146.05000	0.64667
146.03333	0.65424
145.98333	0.65875
145.95000	0.66343
145.90000	0.66149
145.85000	0.65908
145.80000	0.64184
145.73333	0.57546
145.66667	0.55951
145.65000	0.55355
145.58333	0.58335
145.40000	0.64522
145.23333	0.66375
145.16667	0.63974
145.13333	0.64522
145.13333	0.63572
145.13333	0.63427
145.13333	0.62315
145.13333	0.62138
145.13333	0.60124
145.13333	0.59624
145.13333	0.57900
145.13333	0.58496
145.13333	0.57240
145.13333	0.57707
145.13333	0.58351
145.13333	0.58996
145.13333	0.58996
145.13333	0.58577
145.13333	0.58045
145.13333	0.58786
145.13333	0.59592
145.13333	0.60075
145.13333	0.59318
145.13333	0.57643
145.13333	0.57063
145.13333	0.58029
145.13333	0.59109
145.13333	0.64860
145.11667	0.65344
145.11667	0.65505
145.11667	0.65634
145.10000	0.65215
145.06667	0.64828
145.00000	0.64023
144.96667	0.63491
144.96667	0.64313
144.96667	0.65473
144.95000	0.66697
144.95000	0.66568
144.91667	0.66520
144.86667	0.66552
144.80000	0.66407
144.75000	0.66778
144.68333	0.65940
144.66667	0.65650
144.65000	0.65698
144.61667	0.65859
144.56667	0.65167
144.50000	0.64280
144.41667	0.65537
144.35000	0.63233
144.26667	0.61751
144.23333	0.61090
144.21667	0.60800
144.18333	0.59930
144.16667	0.59528
144.13333	0.61171
144.08333	0.64442
143.98333	0.65489
143.88333	0.66633
143.78333	0.65682
143.73333	0.65183
143.68333	0.66262
143.65000	0.67487
143.63333	0.68083
143.60000	0.68566
143.56667	0.68034
143.53333	0.67954
143.45000	0.68534
143.40000	0.67938
143.31667	0.67213
143.23333	0.65022
143.11667	0.62879
143.08333	0.62476
143.06667	0.62959
143.05000	0.64135
143.05000	0.65279
143.03333	0.66391
143.01667	0.66697
143.00000	0.67293
143.00000	0.68566
142.98333	0.67615
142.98333	0.67470
142.98333	0.64860
142.98333	0.58754
142.98333	0.59044
142.96667	0.65183
142.90000	0.67970
142.78333	0.59769
142.71667	0.53148
142.65000	0.44141
142.60000	0.40146
142.58333	0.38132
142.58333	0.36440
142.58333	0.37149
142.58333	0.38664
142.58333	0.38905
142.58333	0.41064
142.58333	0.41483
142.58333	0.41338
142.60000	0.45978
142.60000	0.46671
142.60000	0.53405
142.60000	0.60398
142.60000	0.62718
142.60000	0.64248
142.60000	0.63298
142.60000	0.61848
142.60000	0.62444
142.60000	0.62395
142.60000	0.62428
142.60000	0.61719
142.60000	0.63137
142.60000	0.65859
142.58333	0.68469
142.58333	0.65747
142.56667	0.60349
142.50000	0.55725
142.41667	0.51633
142.40000	0.56434
142.40000	0.63008
142.40000	0.66858
142.40000	0.68067
142.38333	0.67728
142.38333	0.67180
142.38333	0.65956
142.38333	0.66133
142.36667	0.66600
142.36667	0.65537
142.33333	0.64377
142.20000	0.61429
142.08333	0.54791
142.05000	0.52616
142.03333	0.52841
142.03333	0.55371
142.03333	0.58013
142.03333	0.60688
142.01667	0.64184
142.01667	0.66600
142.01667	0.67213
142.01667	0.67825
142.01667	0.67889
142.01667	0.68695
142.00000	0.68743
142.00000	0.69065
141.96667	0.69130
141.91667	0.69275
141.88333	0.69484
141.78333	0.68711
141.68333	0.68534
141.61667	0.68566
141.58333	0.68292
141.53333	0.68389
141.48333	0.68244
141.43333	0.68195
141.40000	0.68324
141.36667	0.68598
141.33333	0.67857
141.28333	0.67229
141.25000	0.66794
141.21667	0.65682
141.18333	0.65247
141.15000	0.65682
141.13333	0.67132
141.10000	0.67777
141.08333	0.69001
141.05000	0.68582
141.00000	0.67744
140.95000	0.65698
140.90000	0.64957
140.81667	0.63636
140.76667	0.63459
140.73333	0.64329
140.71667	0.65505
140.70000	0.66842
140.68333	0.67857
140.66667	0.67922
140.65000	0.68034
140.63333	0.67712
140.61667	0.67454
140.60000	0.67084
140.58333	0.67970
140.56667	0.68421
140.55000	0.67487
140.53333	0.67035
140.51667	0.67728
140.50000	0.68292
140.45000	0.68888
140.40000	0.68212
140.36667	0.68195
140.35000	0.68324
140.31667	0.68179
140.30000	0.68050
140.28333	0.68824
140.28333	0.68099
140.26667	0.68260
140.25000	0.67873
140.23333	0.68147
140.20000	0.67068
140.18333	0.65779
140.16667	0.66133
140.13333	0.65279
140.10000	0.64989
140.08333	0.65537
140.05000	0.65795
140.00000	0.65247
139.95000	0.64490
139.90000	0.63507
139.88333	0.63443
139.88333	0.64103
139.86667	0.64748
139.86667	0.66037
139.86667	0.66455
139.86667	0.66633
139.86667	0.66665
139.86667	0.67438
139.86667	0.67406
139.86667	0.67889
139.85000	0.68002
139.85000	0.67857
139.85000	0.68808
139.85000	0.69726
139.83333	0.69517
139.83333	0.69613
139.81667	0.68598
139.81667	0.69774
139.78333	0.69662
139.75000	0.69307
139.71667	0.68808
139.66667	0.69065
139.63333	0.68711
139.61667	0.68727
139.60000	0.69388
139.60000	0.69001
139.60000	0.69114
139.60000	0.69742
139.60000	0.68743
139.60000	0.68324
139.60000	0.68614
139.60000	0.68195
139.60000	0.69275
139.60000	0.68582
139.60000	0.69452
139.58333	0.68792
139.58333	0.68856
139.58333	0.69372
139.58333	0.69162
139.56667	0.68614
139.51667	0.68824
139.40000	0.68502
139.30000	0.68357
139.18333	0.69210
139.05000	0.69355
138.91667	0.69742
138.75000	0.67905
138.61667	0.64313
138.56667	0.61493
138.56667	0.62621
138.55000	0.62879
138.55000	0.63104
138.55000	0.65440
138.55000	0.68002
138.55000	0.69887
138.55000	0.69662
138.55000	0.69517
138.55000	0.70097
138.55000	0.70451
138.55000	0.70354
138.55000	0.69968
138.53333	0.70644
138.51667	0.70225
138.46667	0.69823
138.43333	0.69404
138.41667	0.69968
138.40000	0.69807
138.40000	0.69613
138.38333	0.69259
138.38333	0.69790
138.36667	0.69790
138.36667	0.70242
138.35000	0.69823
138.33333	0.70628
138.31667	0.69839
138.26667	0.69645
138.20000	0.69033
138.15000	0.68808
138.10000	0.68179
138.08333	0.67325
138.05000	0.67535
138.03333	0.67696
138.00000	0.68437
137.98333	0.68856
137.90000	0.69484
137.81667	0.69935
137.78333	0.70403
137.75000	0.69984
137.73333	0.70209
137.73333	0.70322
137.71667	0.70209
137.70000	0.69984
137.68333	0.70499
137.66667	0.70451
137.65000	0.70258
137.61667	0.70161
137.60000	0.70274
137.58333	0.70177
137.56667	0.70000
137.55000	0.70532
137.53333	0.70515
137.51667	0.69903
137.51667	0.69629
137.50000	0.70274
137.48333	0.70290
137.46667	0.70596
137.45000	0.70677
137.43333	0.70258
137.41667	0.69919
137.38333	0.70177
137.33333	0.69952
137.31667	0.70097
137.28333	0.69678
137.26667	0.69565
137.25000	0.70258
137.25000	0.69436
137.23333	0.69259
137.23333	0.70161
137.21667	0.69484
137.21667	0.67422
137.21667	0.66520
137.21667	0.65376
137.21667	0.65972
137.20000	0.65344
137.20000	0.65843
137.18333	0.65457
137.18333	0.64409
137.15000	0.63088
137.13333	0.61429
137.10000	0.62009
137.06667	0.61751
137.03333	0.59979
137.00000	0.59350
136.98333	0.58754
136.98333	0.58738
136.98333	0.59673
136.98333	0.62992
136.98333	0.67003
136.98333	0.68937
136.98333	0.70644
136.98333	0.69855
136.98333	0.70515
136.98333	0.70628
136.98333	0.70677
136.96667	0.70564
136.96667	0.71160
136.95000	0.70999
136.95000	0.70499
136.91667	0.70628
136.90000	0.70838
136.90000	0.70515
136.88333	0.70822
136.85000	0.70725
136.81667	0.70564
136.78333	0.70644
136.75000	0.70596
136.71667	0.70451
136.68333	0.71160
136.65000	0.71240
136.60000	0.70709
136.58333	0.71015
136.56667	0.70628
136.55000	0.69162
136.53333	0.65376
136.50000	0.64377
136.48333	0.64152
136.46667	0.65650
136.40000	0.69436
136.35000	0.70660
136.28333	0.70467
136.15000	0.69903
136.08333	0.69500
136.03333	0.69533
135.98333	0.69662
135.95000	0.69984
135.90000	0.70596
135.86667	0.70838
135.83333	0.70741
135.83333	0.70644
135.81667	0.70741
135.81667	0.71321
135.81667	0.70532
135.81667	0.70306
135.80000	0.70306
135.78333	0.70596
135.76667	0.70757
135.73333	0.70499
135.71667	0.70161
135.68333	0.70838
135.63333	0.70419
135.58333	0.71563
135.56667	0.70709
135.51667	0.70564
135.46667	0.70677
135.43333	0.70967
135.41667	0.70725
135.40000	0.69613
135.38333	0.70032
135.36667	0.69194
135.33333	0.69629
135.30000	0.69436
135.25000	0.69839
135.20000	0.70097
135.16667	0.70322
135.10000	0.71112
135.03333	0.71063
135.00000	0.71079
134.96667	0.71369
134.95000	0.71482
134.91667	0.71353
134.90000	0.71224
134.90000	0.71144
134.85000	0.71482
134.75000	0.71450
134.66667	0.71402
134.58333	0.71176
134.48333	0.71418
134.40000	0.72127
134.33333	0.71418
134.26667	0.71321
134.21667	0.69678
134.20000	0.68405
134.18333	0.68566
134.18333	0.70193
134.18333	0.71547
134.18333	0.71466
134.18333	0.70338
134.18333	0.70274
134.16667	0.70290
134.16667	0.70306
134.16667	0.70499
134.15000	0.70870
134.13333	0.71176
134.11667	0.71337
134.08333	0.71321
134.05000	0.71369
134.00000	0.71756
133.91667	0.71482
133.86667	0.72143
133.81667	0.71869
133.76667	0.70967
133.71667	0.71321
133.68333	0.70274
133.61667	0.70693
133.55000	0.70048
133.50000	0.70741
133.48333	0.71047
133.45000	0.71015
133.40000	0.70532
133.35000	0.71434
133.33333	0.71369
133.31667	0.71643
133.30000	0.71063
133.28333	0.72127
133.26667	0.71514
133.25000	0.71482
133.21667	0.71965
133.16667	0.72014
133.11667	0.71434
133.06667	0.72433
133.00000	0.71853
132.93333	0.70999
132.86667	0.70322
132.81667	0.70048
132.75000	0.69388
132.70000	0.68067
132.65000	0.67035
132.60000	0.66520
132.58333	0.65424
132.58333	0.65312
132.58333	0.65859
132.60000	0.65553
132.60000	0.64570
132.60000	0.64603
132.60000	0.66762
132.60000	0.67615
132.61667	0.66745
132.61667	0.67777
132.61667	0.70322
132.63333	0.72578
132.65000	0.72352
132.66667	0.72835
132.68333	0.72078
132.68333	0.72207
132.68333	0.71982
132.68333	0.72400
132.68333	0.72223
132.68333	0.71837
132.68333	0.71627
132.68333	0.72272
132.68333	0.71965
132.68333	0.71208
132.68333	0.70789
132.68333	0.71611
132.68333	0.72191
132.68333	0.72610
132.70000	0.73045
132.70000	0.71933
132.70000	0.71901
132.70000	0.71047
132.70000	0.71692
132.70000	0.72545
132.70000	0.71756
132.70000	0.71402
132.68333	0.71192
132.68333	0.67084
132.68333	0.65263
132.68333	0.61928
132.68333	0.61912
132.68333	0.67970
132.68333	0.71208
132.68333	0.71756
132.68333	0.71547
132.68333	0.71530
132.68333	0.70370
132.66667	0.68614
132.66667	0.66182
132.66667	0.63781
132.66667	0.64442
132.66667	0.63346
132.65000	0.63410
132.65000	0.64506
132.63333	0.65682
132.53333	0.68276
132.43333	0.69065
132.40000	0.69436
132.38333	0.69130
132.36667	0.68872
132.35000	0.68212
132.28333	0.68228
132.15000	0.69581
132.03333	0.70274
131.96667	0.70306
131.91667	0.70306
131.88333	0.69968
131.83333	0.69871
131.80000	0.70048
131.75000	0.70258
131.70000	0.69968
131.63333	0.69823
131.55000	0.70032
131.51667	0.70097
131.45000	0.70838
131.43333	0.70064
131.41667	0.70419
131.38333	0.70854
131.35000	0.71192
131.28333	0.71450
131.23333	0.71128
131.21667	0.71273
131.21667	0.70757
131.18333	0.70918
131.11667	0.70435
131.08333	0.70338
131.03333	0.70016
131.01667	0.70548
131.00000	0.71369
130.98333	0.71853
130.91667	0.71305
130.81667	0.70902
130.73333	0.70822
130.63333	0.69742
130.53333	0.68840
130.46667	0.67019
130.40000	0.66375
130.33333	0.66133
130.28333	0.66649
130.23333	0.70016
130.18333	0.71772
130.15000	0.72062
130.11667	0.71337
130.08333	0.71418
130.05000	0.71466
130.03333	0.71933
129.98333	0.71514
129.95000	0.71514
129.88333	0.71402
129.81667	0.71885
129.73333	0.72175
129.61667	0.71418
129.53333	0.70177
129.46667	0.69178
129.41667	0.69098
129.36667	0.69275
129.31667	0.71482
129.30000	0.71160
129.28333	0.70757
129.25000	0.70870
129.21667	0.70548
129.18333	0.71273
129.15000	0.71369
129.13333	0.70902
129.11667	0.72078
129.10000	0.71128
129.08333	0.69726
129.03333	0.70097
128.96667	0.69823
128.90000	0.69742
128.83333	0.67374
128.78333	0.65440
128.73333	0.64329
128.70000	0.63572
128.66667	0.62669
128.61667	0.62315
128.60000	0.62895
128.58333	0.63572
128.56667	0.66278
128.55000	0.68244
128.55000	0.68566
128.55000	0.68888
128.53333	0.68727
128.53333	0.68969
128.51667	0.69339
128.51667	0.69194
128.50000	0.69436
128.48333	0.68904
128.46667	0.69452
128.45000	0.70177
128.45000	0.71112
128.45000	0.71369
128.45000	0.71402
128.45000	0.71498
128.45000	0.72191
128.45000	0.71949
128.45000	0.72288
128.43333	0.71756
128.41667	0.71949
128.33333	0.72368
128.21667	0.72320
128.01667	0.68308
127.88333	0.68067
127.78333	0.68647
127.70000	0.70177
127.63333	0.70950
127.60000	0.70934
127.58333	0.71144
127.56667	0.71176
127.55000	0.71257
127.55000	0.71369
127.55000	0.70983
127.53333	0.71208
127.53333	0.71611
127.51667	0.71208
127.51667	0.71804
127.50000	0.72207
127.50000	0.71224
127.50000	0.71740
127.50000	0.71240
127.50000	0.70274
127.48333	0.70580
127.48333	0.71530
127.46667	0.71820
127.45000	0.71837
127.43333	0.72062
127.40000	0.72723
127.33333	0.73399
127.30000	0.72014
127.28333	0.71933
127.28333	0.70757
127.26667	0.70274
127.25000	0.67986
127.21667	0.65698
127.20000	0.62605
127.18333	0.60156
127.16667	0.57965
127.15000	0.58158
127.13333	0.58529
127.11667	0.60961
127.11667	0.62250
127.11667	0.65167
127.11667	0.65875
127.10000	0.67470
127.06667	0.66085
126.98333	0.64425
126.86667	0.61203
126.75000	0.56595
126.66667	0.53921
126.58333	0.52696
126.55000	0.55210
126.53333	0.60414
126.53333	0.62895
126.53333	0.64023
126.51667	0.64635
126.51667	0.64828
126.50000	0.63845
126.48333	0.63443
126.45000	0.63330
126.40000	0.62830
126.33333	0.61123
126.28333	0.55403
126.26667	0.50344
126.25000	0.50747
126.23333	0.50731
126.23333	0.50683
126.23333	0.50167
126.21667	0.49668
126.21667	0.49523
126.20000	0.49200
126.20000	0.49394
126.16667	0.49958
126.11667	0.49555
126.06667	0.49571
126.05000	0.54308
126.05000	0.56998
126.05000	0.60623
126.03333	0.63298
126.03333	0.64023
126.03333	0.66149
126.03333	0.67358
126.03333	0.68953
126.03333	0.71418
126.05000	0.72143
126.05000	0.72997
126.05000	0.73013
126.05000	0.73657
126.05000	0.73738
126.05000	0.73125
126.05000	0.73077
126.05000	0.69162
126.05000	0.65650
126.05000	0.59979
126.05000	0.54227
126.05000	0.46300
126.05000	0.41580
126.05000	0.37471
126.05000	0.37632
126.06667	0.53679
126.08333	0.69098
126.10000	0.66391
126.08333	0.61026
126.08333	0.47863
126.08333	0.43948
126.08333	0.32702
126.06667	0.21231
126.06667	0.10614
126.06667	0.05652
126.06667	0.03815
126.06667	0.02768
126.06667	0.03122
126.08333	0.03316
126.08333	0.03928
126.08333	0.03622
126.08333	0.04524
126.08333	0.04862
126.08333	0.06812
126.08333	0.07537
126.08333	0.03155
126.08333	0.01640
126.08333	0.02510
126.10000	0.02478
126.10000	0.05056
126.10000	0.04911
126.10000	0.03751
126.10000	0.03074
126.10000	0.01898
126.08333	0.01914
126.08333	0.02333
126.10000	0.02027
126.10000	0.02752
126.10000	0.02252
126.10000	0.01930
126.10000	0.02413
126.10000	0.02365
126.10000	0.02236
126.10000	0.02558
126.10000	0.01914
126.10000	0.02623
126.10000	0.02945
126.10000	0.03042
126.11667	0.19217
126.11667	0.50360
126.11667	0.54630
126.11667	0.52600
126.11667	0.47025
126.11667	0.31575
126.11667	0.19588
126.11667	0.20506
126.13333	0.22520
126.18333	0.22746
126.20000	0.15705
126.26667	0.06522
126.38333	0.03622
126.60000	0.03348
126.70000	0.03010
126.85000	0.02752
127.08333	0.03219
127.26667	0.02848
127.46667	0.03155
127.71667	0.03187
127.98333	0.02252
128.28333	0.07424
128.53333	0.44802
128.73333	0.70129
128.83333	0.69710
128.90000	0.67100
128.93333	0.62653
128.96667	0.62444
128.98333	0.64280
128.98333	0.68647
128.96667	0.72400
128.96667	0.72739
128.98333	0.72239
128.98333	0.70967
129.00000	0.70709
129.01667	0.71144
129.05000	0.70693
129.10000	0.69758
129.15000	0.70435
129.18333	0.69082
129.28333	0.69082
129.45000	0.68534
129.66667	0.66149
129.90000	0.53679
130.03333	0.29496
130.13333	0.20200
130.18333	0.23100
130.20000	0.43352
130.20000	0.51327
130.18333	0.61831
130.18333	0.65118
130.18333	0.67035
130.20000	0.66890
130.20000	0.66294
130.20000	0.67003
130.20000	0.66971
130.20000	0.66343
130.21667	0.64554
130.25000	0.61896
130.30000	0.60897
130.41667	0.59318
130.55000	0.59785
130.70000	0.61719
130.88333	0.61493
131.06667	0.60945
131.15000	0.60349
131.21667	0.59463
131.25000	0.58706
131.25000	0.59624
131.25000	0.60333
131.25000	0.61026
131.25000	0.60945
131.25000	0.61268
131.25000	0.60865
131.25000	0.59882
131.25000	0.60978
131.26667	0.60543
131.26667	0.60430
131.28333	0.59995
131.35000	0.60897
131.41667	0.61638
131.50000	0.60720
131.61667	0.60220
131.70000	0.59447
131.73333	0.59511
131.78333	0.60236
131.81667	0.60478
131.83333	0.60204
131.85000	0.60559
131.88333	0.59544
131.90000	0.59721
131.95000	0.59528
132.01667	0.60752
132.06667	0.61026
132.11667	0.62186
132.20000	0.63410
132.30000	0.64506
132.36667	0.65005
132.43333	0.65312
132.48333	0.65569
132.51667	0.65424
132.55000	0.65714
132.56667	0.65521
132.58333	0.66294
132.58333	0.66020
132.60000	0.66810
132.60000	0.66375
132.60000	0.67229
132.60000	0.66745
132.60000	0.67245
132.60000	0.67841
132.60000	0.68163
132.60000	0.67261
132.61667	0.68050
132.60000	0.69533
132.60000	0.70596
132.60000	0.70596
132.60000	0.70306
132.60000	0.69517
132.61667	0.69388
132.61667	0.69533
132.63333	0.69259
132.66667	0.69275
132.70000	0.68389
132.76667	0.68920
132.81667	0.68115
132.86667	0.68663
132.95000	0.68920
133.05000	0.69726
133.18333	0.68405
133.28333	0.66568
133.31667	0.67245
133.33333	0.67470
133.36667	0.67841
133.36667	0.68340
133.40000	0.68856
133.43333	0.68775
133.46667	0.68485
133.51667	0.69001
133.56667	0.68405
133.60000	0.68824
133.66667	0.68872
133.75000	0.69500
133.83333	0.70225
133.88333	0.70403
133.93333	0.69420
134.00000	0.69710
134.03333	0.68437
134.06667	0.69162
134.10000	0.68888
134.10000	0.69227
134.11667	0.69549
134.11667	0.70161
134.13333	0.69903
134.13333	0.68115
134.13333	0.66890
134.13333	0.65070
134.13333	0.63394
134.13333	0.63491
134.15000	0.65440
134.21667	0.68067
134.30000	0.69178
134.36667	0.69517
134.38333	0.70048
134.40000	0.69694
134.40000	0.69968
134.40000	0.69468
134.40000	0.69565
134.41667	0.69581
134.46667	0.70129
134.55000	0.70548
134.63333	0.69549
134.70000	0.70032
134.73333	0.70193
134.76667	0.69372
134.80000	0.69629
134.83333	0.69420
134.90000	0.68953
134.95000	0.68824
135.00000	0.68228
135.05000	0.69065
135.13333	0.68985
135.20000	0.67922
135.25000	0.68308
135.25000	0.68437
135.25000	0.68421
135.25000	0.68856
135.25000	0.68502
135.25000	0.68614
135.25000	0.68953
135.25000	0.68792
135.25000	0.69355
135.25000	0.68985
135.25000	0.68840
135.25000	0.68904
135.25000	0.69114
135.25000	0.68647
135.25000	0.68421
135.25000	0.68308
135.25000	0.68969
135.25000	0.68453
135.25000	0.68550
135.25000	0.67680
135.25000	0.66520
135.25000	0.65118
135.26667	0.64184
135.26667	0.65843
135.25000	0.67905
135.25000	0.69372
135.25000	0.69339
135.25000	0.69613
135.25000	0.69790
135.25000	0.69871
135.25000	0.70499
135.25000	0.70242
135.25000	0.69017
135.23333	0.68614
135.23333	0.69774
135.23333	0.70612
135.23333	0.70612
135.23333	0.70274
135.23333	0.71047
135.23333	0.70435
135.23333	0.70950
135.23333	0.70161
135.23333	0.69468
135.23333	0.69565
135.23333	0.69227
135.23333	0.68453
135.23333	0.64458
135.25000	0.63459
135.25000	0.65569
135.25000	0.68115
135.25000	0.69468
135.25000	0.69935
135.26667	0.69807
135.26667	0.70596
135.26667	0.70934
135.26667	0.71063
135.26667	0.71611
135.26667	0.71144
135.28333	0.70902
135.28333	0.70628
135.28333	0.71176
135.28333	0.70870
135.31667	0.70580
135.53333	0.70515
135.65000	0.70048
135.75000	0.69710
135.78333	0.69484
135.81667	0.69291
135.88333	0.69307
135.88333	0.70354
135.88333	0.70515
135.88333	0.68276
135.86667	0.60945
135.85000	0.57014
135.83333	0.52841
135.81667	0.52294
135.80000	0.59254
135.76667	0.68179
135.68333	0.70950
135.56667	0.71095
135.36667	0.70467
135.18333	0.70338
135.05000	0.70741
134.93333	0.70016
134.86667	0.69372
134.86667	0.70274
134.86667	0.70628
134.86667	0.70677
134.86667	0.71369
134.86667	0.70967
134.85000	0.71160
134.85000	0.71192
134.83333	0.70773
134.73333	0.70596
134.53333	0.69355
134.40000	0.66874
134.31667	0.66472
134.20000	0.64313
134.10000	0.63298
133.95000	0.61799
133.85000	0.60961
133.81667	0.64844
133.76667	0.68115
133.68333	0.67084
133.45000	0.59431
133.15000	0.40259
132.91667	0.16350
132.81667	0.09341
132.80000	0.15141
132.80000	0.32026
132.80000	0.51408
132.80000	0.63427
132.78333	0.68099
132.78333	0.69500
132.76667	0.70048
132.76667	0.70322
132.75000	0.70419
132.73333	0.70161
132.73333	0.70644
132.71667	0.69388
132.70000	0.70032
132.68333	0.70370
132.66667	0.70741
132.66667	0.71756
132.65000	0.71563
132.61667	0.71740
132.58333	0.71450
132.56667	0.70757
132.55000	0.70983
132.53333	0.71063
132.53333	0.70999
132.51667	0.71160
132.50000	0.71369
132.43333	0.71418
132.36667	0.71563
132.28333	0.72143
132.20000	0.72175
132.13333	0.71563
132.08333	0.71257
132.03333	0.71933
132.01667	0.72255
132.00000	0.72417
131.96667	0.71885
131.91667	0.72159
131.83333	0.71305
131.76667	0.71289
131.70000	0.71128
131.65000	0.71369
131.63333	0.71901
131.60000	0.72707
131.58333	0.72465
131.55000	0.72175
131.50000	0.72336
131.41667	0.72046
131.35000	0.72594
131.26667	0.72384
131.20000	0.73029
131.13333	0.71724
131.08333	0.72739
131.03333	0.72239
131.00000	0.71740
130.95000	0.70644
130.88333	0.69919
130.81667	0.69742
130.70000	0.70902
130.60000	0.71820
130.53333	0.72320
130.48333	0.72288
130.46667	0.72707
130.41667	0.72868
130.36667	0.73544
130.31667	0.72884
130.26667	0.72658
130.21667	0.72835
130.18333	0.72723
130.18333	0.71998
130.16667	0.72207
130.15000	0.73625
130.11667	0.72739
130.05000	0.72932
130.00000	0.73383
129.95000	0.73432
129.90000	0.73641
129.88333	0.73544
129.83333	0.73206
129.78333	0.73432
129.71667	0.73254
129.65000	0.73061
129.60000	0.73270
129.55000	0.73560
129.50000	0.73689
129.45000	0.73464
129.36667	0.72884
129.30000	0.72352
129.25000	0.71563
129.21667	0.70886
129.18333	0.71031
129.16667	0.70934
129.15000	0.71675
129.15000	0.71982
129.15000	0.72771
129.13333	0.73625
129.11667	0.72916
129.10000	0.73577
129.06667	0.73383
129.01667	0.73190
128.98333	0.73528
128.95000	0.73802
128.90000	0.73415
128.85000	0.73190
128.83333	0.72916
128.80000	0.72529
128.76667	0.71901
128.71667	0.71337
128.66667	0.69919
128.61667	0.70644
128.60000	0.69871
128.58333	0.70644
128.58333	0.70644
128.55000	0.69774
128.48333	0.68518
128.40000	0.65827
128.30000	0.58883
128.23333	0.52036
128.18333	0.48105
128.16667	0.46075
128.15000	0.45076
128.15000	0.46252
128.13333	0.46961
128.11667	0.46494
128.10000	0.49732
128.10000	0.61461
128.10000	0.67245
128.08333	0.69517
128.08333	0.69275
128.06667	0.69452
128.06667	0.69710
128.06667	0.70983
128.06667	0.72449
128.06667	0.73480
128.06667	0.73770
128.06667	0.73625
128.05000	0.73544
128.05000	0.73722
128.03333	0.73673
128.01667	0.73850
128.01667	0.72900
128.01667	0.54114
128.00000	0.54308
127.95000	0.61928
127.85000	0.67825
127.76667	0.72594
127.70000	0.73415
127.65000	0.73432
127.61667	0.73464
127.60000	0.74237
127.58333	0.74205
127.56667	0.74060
127.56667	0.74285
127.53333	0.73544
127.51667	0.72997
127.50000	0.72578
127.48333	0.71772
127.46667	0.71885
127.46667	0.71450
127.45000	0.72239
127.45000	0.72191
127.43333	0.71949
127.40000	0.71224
127.36667	0.71305
127.30000	0.70515
127.21667	0.68260
127.15000	0.66810
127.13333	0.68840
127.10000	0.68469
127.06667	0.68437
127.05000	0.69758
127.03333	0.69355
127.00000	0.69178
126.96667	0.69726
126.91667	0.69645
126.85000	0.68131
126.76667	0.66617
126.71667	0.68872
126.65000	0.70999
126.60000	0.72545
126.51667	0.71869
126.45000	0.70838
126.36667	0.69662
126.31667	0.68179
126.28333	0.68727
126.23333	0.70354
126.20000	0.72352
126.16667	0.73995
126.15000	0.74495
126.11667	0.73480
126.05000	0.71192
126.00000	0.68002
125.95000	0.66600
125.88333	0.63813
125.80000	0.61896
125.71667	0.58931
125.60000	0.59109
125.51667	0.59286
125.46667	0.59528
125.38333	0.59753
125.33333	0.58384
125.26667	0.59399
125.21667	0.58690
125.16667	0.57175
125.10000	0.59173
125.06667	0.61606
125.03333	0.66923
125.03333	0.72223
125.01667	0.74543
125.01667	0.74575
125.01667	0.75043
125.01667	0.74753
125.01667	0.75268
125.00000	0.75236
125.00000	0.75284
124.96667	0.74946
124.93333	0.75252
124.90000	0.74865
124.88333	0.75494
124.85000	0.75639
124.81667	0.74785
124.78333	0.75639
124.73333	0.75816
124.65000	0.75478
124.56667	0.75075
124.53333	0.74882
124.50000	0.74865
124.48333	0.75204
124.46667	0.75558
124.43333	0.75558
124.38333	0.76170
124.33333	0.75542
124.28333	0.75574
124.25000	0.75413
124.18333	0.76219
124.15000	0.76718
124.08333	0.76493
124.03333	0.76863
124.00000	0.76299
123.98333	0.76460
123.96667	0.76090
123.95000	0.76122
123.90000	0.75462
123.83333	0.75752
123.75000	0.76380
123.66667	0.75945
123.58333	0.75574
123.45000	0.73963
123.31667	0.70854
123.16667	0.64909
123.01667	0.59383
122.90000	0.54533
122.85000	0.53873
122.83333	0.57336
122.81667	0.63249
122.83333	0.71547
122.83333	0.76976
122.83333	0.77153
122.83333	0.76718
122.83333	0.76573
122.83333	0.78281
122.85000	0.78684
122.83333	0.79425
122.83333	0.77330
122.83333	0.76670
122.83333	0.77153
122.83333	0.72884
122.83333	0.67712
122.83333	0.61461
122.83333	0.60027
122.83333	0.61590
122.83333	0.65714
122.83333	0.73657
122.85000	0.70000
122.85000	0.68534
122.85000	0.64941
122.85000	0.63555
122.85000	0.63314
122.85000	0.64490
122.85000	0.67648
122.85000	0.69484
122.85000	0.71611
122.85000	0.70822
122.85000	0.71482
122.85000	0.71595
122.85000	0.69935
122.85000	0.65956
122.85000	0.57868
122.85000	0.50248
122.85000	0.49732
122.85000	0.50956
122.85000	0.53631
122.85000	0.52954
122.85000	0.44834
122.85000	0.39131
122.85000	0.30302
122.86667	0.26532
122.86667	0.15319
122.86667	0.10952
122.86667	0.14255
122.86667	0.16462
122.86667	0.16849
122.86667	0.21231
122.86667	0.23922
122.86667	0.32445
122.86667	0.42756
122.86667	0.40726
122.86667	0.27966
122.86667	0.25968
122.86667	0.29545
122.86667	0.43014
122.86667	0.59705
122.86667	0.70354
122.86667	0.74946
122.86667	0.75977
122.86667	0.78587
122.86667	0.78635
122.86667	0.79618
122.86667	0.79199
122.86667	0.78909
122.86667	0.79038
122.85000	0.78780
122.85000	0.78764
122.85000	0.78555
122.85000	0.78732
122.83333	0.78313
122.83333	0.77669
122.83333	0.77733
122.81667	0.77057
122.78333	0.77298
122.51667	0.78184
122.23333	0.79425
122.10000	0.78120
122.05000	0.77508
122.03333	0.78603
122.03333	0.79328
122.03333	0.79199
122.01667	0.77121
122.00000	0.76654
121.93333	0.76702
121.83333	0.78345
121.70000	0.79280
121.56667	0.79441
121.45000	0.76348
121.38333	0.74044
121.35000	0.72320
121.31667	0.72674
121.30000	0.71885
121.28333	0.72288
121.25000	0.71047
121.20000	0.70113
121.16667	0.70693
121.13333	0.71466
121.10000	0.72400
121.08333	0.71385
121.08333	0.71788
121.06667	0.72690
121.06667	0.73689
121.06667	0.74817
121.05000	0.76009
121.05000	0.76622
121.03333	0.77202
121.01667	0.77459
121.00000	0.77814
120.96667	0.76863
120.86667	0.75010
120.76667	0.71369
120.65000	0.66294
120.55000	0.59028
120.48333	0.57256
120.43333	0.55403
120.41667	0.55484
120.40000	0.58013
120.40000	0.62299
120.40000	0.70387
120.38333	0.76106
120.38333	0.78813
120.38333	0.79151
120.38333	0.79215
120.38333	0.78925
120.38333	0.79554
120.38333	0.79763
120.38333	0.78942
120.38333	0.79489
120.36667	0.80118
120.36667	0.79570
120.36667	0.79908
120.36667	0.80069
120.36667	0.79377
120.36667	0.80005
120.36667	0.80424
120.36667	0.80810
120.36667	0.80488
120.36667	0.80714
120.35000	0.80569
120.35000	0.80230
120.35000	0.80279
120.35000	0.80794
120.35000	0.80327
120.33333	0.80859
120.33333	0.80746
120.33333	0.80182
120.33333	0.80150
120.30000	0.79812
120.23333	0.79215
120.15000	0.77218
120.10000	0.75687
120.05000	0.75413
120.01667	0.74479
119.98333	0.73995
119.96667	0.76267
119.93333	0.78555
119.91667	0.78974
119.90000	0.79409
119.88333	0.78845
119.85000	0.78587
119.81667	0.78184
119.75000	0.76573
119.68333	0.74704
119.63333	0.74463
119.58333	0.75349
119.56667	0.78990
119.55000	0.80166
119.53333	0.80827
119.53333	0.80649
119.51667	0.80939
119.51667	0.80150
119.50000	0.80279
119.48333	0.80988
119.46667	0.81149
119.45000	0.81503
119.41667	0.82051
119.36667	0.82051
119.33333	0.82051
119.30000	0.80682
119.30000	0.81165
119.30000	0.81584
119.30000	0.81487
119.30000	0.81616
119.30000	0.81503
119.28333	0.81310
119.28333	0.81761
119.26667	0.82035
119.25000	0.81117
119.20000	0.81487
119.11667	0.81455
119.03333	0.80440
118.98333	0.78780
118.93333	0.78088
118.88333	0.75945
118.85000	0.74350
118.80000	0.73867
118.75000	0.71514
118.70000	0.67100
118.68333	0.69645
118.68333	0.73979
118.66667	0.76912
118.66667	0.79828
118.66667	0.80472
118.65000	0.80843
118.63333	0.80810
118.61667	0.79860
118.55000	0.79328
118.48333	0.76992
118.41667	0.74849
118.35000	0.75961
118.31667	0.78104
118.30000	0.77814
118.30000	0.77524
118.28333	0.77894
118.28333	0.77282
118.25000	0.78507
118.16667	0.79054
118.03333	0.76783
117.98333	0.75284
117.96667	0.76090
117.96667	0.77347
117.96667	0.78893
117.96667	0.78974
117.96667	0.79232
117.96667	0.79296
117.95000	0.79489
117.95000	0.79199
117.95000	0.78942
117.95000	0.77556
117.95000	0.76380
117.95000	0.70918
117.96667	0.48588
117.96667	0.08503
117.98333	0.67422
118.00000	0.75365
118.00000	0.75284
118.00000	0.77459
118.01667	0.77395
118.01667	0.79264
118.01667	0.79908
118.01667	0.82003
118.01667	0.82744
118.01667	0.73254
118.01667	0.55161
118.01667	0.37939
118.01667	0.34475
118.01667	0.57675
118.01667	0.72755
118.01667	0.81262
118.01667	0.84516
118.01667	0.84903
118.01667	0.26596
118.01667	0.16688
118.01667	0.65988
118.01667	0.05716
118.01667	0.22649
118.01667	0.63878
118.01667	0.64135
118.01667	0.63298
118.01667	0.47267
118.03333	0.06747
118.03333	0.03541
118.03333	0.03638
118.03333	0.03654
118.03333	0.03638
118.01667	0.23245
118.01667	0.57578
118.01667	0.18154
118.01667	0.17622
118.01667	0.38696
118.01667	0.61171
118.01667	0.47219
118.00000	0.46671
118.00000	0.50473
117.98333	0.59109
117.98333	0.64522
117.96667	0.77943
117.96667	0.84242
117.96667	0.86031
117.98333	0.85273
117.98333	0.84387
117.96667	0.84709
117.98333	0.82695
117.98333	0.81133
117.98333	0.83308
117.98333	0.83630
117.98333	0.84258
117.98333	0.83936
117.98333	0.81600
117.96667	0.80408
117.96667	0.81149
117.96667	0.76928
117.96667	0.72127
117.96667	0.80553
117.96667	0.83565
117.95000	0.80553
117.96667	0.82760
117.96667	0.82953
117.96667	0.84226
117.96667	0.84742
117.96667	0.84758
117.96667	0.84903
117.96667	0.85273
117.96667	0.84903
117.96667	0.84371
117.95000	0.84838
117.95000	0.84307
117.93333	0.83565
117.90000	0.80923
117.65000	0.75735
117.28333	0.83501
116.96667	0.85386
116.70000	0.75510
116.61667	0.69355
116.56667	0.67309
116.53333	0.67100
116.51667	0.71675
116.50000	0.77588
116.50000	0.85161
116.50000	0.86047
116.46667	0.86127
116.43333	0.85225
116.40000	0.83630
116.31667	0.75204
116.26667	0.65408
116.23333	0.63894
116.21667	0.63862
116.21667	0.77105
116.21667	0.85386
116.21667	0.85789
116.20000	0.86079
116.16667	0.85306
116.13333	0.85193
116.10000	0.84822
116.08333	0.85209
116.05000	0.85338
116.03333	0.85370
115.98333	0.85724
115.86667	0.86014
115.78333	0.86159
115.75000	0.85837
115.73333	0.85241
115.70000	0.85273
115.65000	0.86304
115.58333	0.86675
115.53333	0.86176
115.48333	0.86159
115.41667	0.86047
115.38333	0.86111
115.35000	0.86417
115.31667	0.86562
115.26667	0.86546
115.23333	0.86079
115.18333	0.86063
115.13333	0.86562
115.03333	0.87078
114.98333	0.87126
114.90000	0.87932
114.85000	0.87287
114.80000	0.87787
114.75000	0.87690
114.70000	0.86530
114.66667	0.85837
114.61667	0.82599
114.56667	0.83275
114.51667	0.84854
114.43333	0.86047
114.36667	0.86449
114.31667	0.86933
114.30000	0.86852
114.28333	0.86562
114.26667	0.86772
114.23333	0.86901
114.21667	0.86707
114.18333	0.87255
114.11667	0.87464
114.10000	0.87336
114.06667	0.86369
113.93333	0.84935
113.80000	0.84999
113.70000	0.85934
113.63333	0.85982
113.58333	0.85628
113.55000	0.85837
113.51667	0.85869
113.46667	0.85096
113.40000	0.84548
113.35000	0.81777
113.31667	0.78426
113.28333	0.75155
113.25000	0.72964
113.21667	0.75800
113.18333	0.83823
113.13333	0.85354
113.10000	0.86852
113.08333	0.86240
113.06667	0.86675
113.05000	0.87029
113.01667	0.87158
112.98333	0.88238
112.93333	0.88544
112.88333	0.89108
112.83333	0.89430
112.80000	0.89124
112.76667	0.87706
112.73333	0.87013
112.68333	0.86240
112.65000	0.86353
112.55000	0.88512
112.40000	0.89301
112.30000	0.89156
112.25000	0.89140
112.21667	0.87303
112.20000	0.85579
112.16667	0.82502
112.13333	0.80633
112.10000	0.80359
112.05000	0.79248
111.96667	0.78184
111.86667	0.76299
111.78333	0.74753
111.70000	0.70999
111.66667	0.70177
111.65000	0.71112
111.63333	0.74753
111.61667	0.79022
111.61667	0.83614
111.61667	0.87883
111.61667	0.88898
111.61667	0.89011
111.61667	0.89688
111.60000	0.90139
111.60000	0.89494
111.58333	0.89591
111.56667	0.90558
111.51667	0.89881
111.50000	0.89688
111.50000	0.89913
111.48333	0.90300
111.46667	0.90606
111.46667	0.91218
111.45000	0.90896
111.41667	0.90993
111.36667	0.91057
111.30000	0.90832
111.26667	0.90171
111.25000	0.90493
111.21667	0.90816
111.20000	0.90671
111.20000	0.90622
111.18333	0.90461
111.18333	0.91073
111.16667	0.88947
111.16667	0.88077
111.18333	0.85757
111.18333	0.83163
111.18333	0.84435
111.18333	0.86304
111.18333	0.87336
111.18333	0.88560
111.18333	0.88850
111.18333	0.89656
111.18333	0.89543
111.18333	0.89591
111.18333	0.91186
111.18333	0.91283
111.18333	0.89656
111.18333	0.78088
111.20000	0.80263
111.20000	0.85048
111.20000	0.83759
111.20000	0.83727
111.20000	0.83227
111.21667	0.86643
111.23333	0.73818
111.21667	0.67954
111.21667	0.60446
111.21667	0.61429
111.21667	0.65054
111.23333	0.73238
111.23333	0.79554
111.23333	0.84887
111.23333	0.90268
111.25000	0.92427
111.25000	0.93812
111.25000	0.93619
111.26667	0.93748
111.26667	0.94102
111.26667	0.89946
111.25000	0.56740
111.25000	0.19604
111.25000	0.53244
111.26667	0.90590
111.26667	0.91686
111.25000	0.93716
111.25000	0.87738
111.25000	0.54598
111.23333	0.29351
111.23333	0.17639
111.23333	0.08407
111.23333	0.83727
111.23333	0.67309
111.25000	0.54324
111.25000	0.52052
111.25000	0.48089
111.25000	0.43288
111.25000	0.49313
111.25000	0.47638
111.25000	0.51601
111.25000	0.54243
111.25000	0.55145
111.25000	0.50441
111.25000	0.49265
111.25000	0.57578
111.25000	0.71015
111.25000	0.80327
111.25000	0.76299
111.25000	0.77266
111.25000	0.79779
111.25000	0.86933
111.25000	0.90332
111.23333	0.91798
111.21667	0.91669
111.21667	0.91557
111.21667	0.92282
111.20000	0.90509
111.18333	0.91863
111.08333	0.93216
110.76667	0.91122
110.66667	0.88931
110.63333	0.87819
110.61667	0.90203
110.60000	0.91637
110.60000	0.92942
110.56667	0.94038
110.53333	0.93152
110.50000	0.91831
110.45000	0.92411
110.38333	0.92056
110.31667	0.91976
110.23333	0.92958
110.11667	0.93699
110.00000	0.94360
109.90000	0.94634
109.81667	0.95294
109.75000	0.94763
109.68333	0.94795
109.65000	0.95053
109.60000	0.95214
109.58333	0.93474
109.56667	0.92926
109.51667	0.92217
109.46667	0.91992
109.40000	0.92636
109.33333	0.91976
109.28333	0.91138
109.20000	0.88979
109.06667	0.88496
108.91667	0.92733
108.78333	0.93877
108.68333	0.94940
108.63333	0.94731
108.61667	0.85918
108.60000	0.75929
108.60000	0.86433
108.58333	0.90606
108.55000	0.92958
108.46667	0.95117
108.38333	0.96390
108.30000	0.95391
108.21667	0.94682
108.16667	0.96036
108.13333	0.96406
108.10000	0.96503
108.05000	0.97389
108.00000	0.96970
107.95000	0.96019
107.90000	0.94473
107.85000	0.92733
107.80000	0.92153
107.71667	0.92394
107.66667	0.92749
107.61667	0.93007
107.56667	0.90767
107.53333	0.90139
107.48333	0.87336
107.45000	0.87432
107.40000	0.87835
107.36667	0.88028
107.33333	0.89478
107.30000	0.89527
107.25000	0.90284
107.18333	0.90074
107.08333	0.91202
107.00000	0.92346
106.96667	0.86127
106.93333	0.85692
106.91667	0.89736
106.90000	0.90445
106.90000	0.90961
106.90000	0.92813
106.88333	0.96938
106.88333	0.98323
106.88333	0.97969
106.88333	0.99048
106.88333	0.98855
106.88333	0.99000
106.88333	0.99161
106.88333	0.99387
106.86667	0.99064
106.85000	0.96487
106.80000	0.95166
106.73333	0.95794
106.66667	0.96229
106.61667	0.96857
106.58333	0.97888
106.55000	0.98871
106.51667	0.98227
106.50000	0.98452
106.48333	0.98662
106.46667	0.98903
106.43333	0.99822
106.38333	0.99709
106.35000	0.99435
106.31667	0.99451
106.28333	0.99596
106.23333	0.97776
106.16667	0.98372
106.08333	0.97502
106.01667	0.96793
105.95000	0.97276
105.90000	0.97051
105.85000	0.97034
105.78333	0.97711
105.70000	0.97776
105.61667	0.98565
105.56667	0.99306
105.53333	0.98839
105.50000	0.99226
105.46667	0.99532
105.45000	0.99435
105.41667	0.99677
105.38333	1.00208
105.35000	0.99435
105.30000	0.99644
105.26667	0.99693
105.20000	0.98452
105.15000	0.98388
105.08333	0.98404
105.01667	0.99129
104.95000	0.99387
104.91667	0.99709
104.90000	1.00224
104.88333	1.00837
104.86667	1.00901
104.85000	1.00531
104.83333	1.01014
104.80000	1.01755
104.76667	1.00917
104.70000	1.00595
104.65000	1.01111
104.60000	1.00982
104.56667	1.01288
104.51667	1.01368
104.46667	1.01223
104.38333	1.01288
104.26667	1.01111
104.16667	1.00031
104.03333	0.98984
103.91667	0.97196
103.83333	0.96245
103.76667	0.95568
103.71667	0.94296
103.68333	0.93619
103.66667	0.93184
103.66667	0.92636
103.66667	0.95697
103.66667	0.93393
103.66667	0.72948
103.68333	0.54598
103.68333	0.45430
103.70000	0.54743
103.70000	0.60865
103.71667	0.55081
103.71667	0.74430
103.71667	0.13288
103.71667	0.29319
103.71667	0.04959
103.71667	0.03235
103.71667	0.04943
103.71667	0.07231
103.71667	0.14593
103.73333	0.46010
103.73333	0.80682
103.73333	0.97131
103.73333	0.98372
103.73333	0.93345
103.73333	0.83227
103.73333	0.72159
103.73333	0.46639
103.73333	0.03267
103.73333	0.01366
103.73333	0.01398
103.73333	0.01173
103.73333	0.00722
103.73333	0.00641
103.73333	0.01592
103.73333	0.00738
103.73333	0.00319
103.73333	0.01125
103.73333	0.01431
103.73333	0.01785
103.75000	0.78217
103.75000	0.91653
103.75000	1.01868
103.75000	0.89011
103.73333	0.89237
103.73333	0.90026
103.73333	0.89527
103.73333	0.90993
103.73333	0.97888
103.73333	0.97018
103.73333	1.02319
103.73333	0.80537
103.73333	0.86192
103.73333	1.04381
103.73333	1.01320
103.71667	0.97083
103.71667	0.94553
103.71667	0.95294
103.71667	1.02045
103.71667	1.02319
103.71667	1.04993
103.71667	1.05976
103.73333	1.07088
103.73333	1.06508
103.73333	1.03592
103.73333	1.00257
103.73333	0.99209
103.73333	1.03447
103.73333	1.02577
103.73333	1.04993
103.73333	1.05058
103.73333	1.07168
103.73333	1.06508
103.73333	1.05912
103.73333	1.04607
103.73333	1.03914
103.73333	1.02206
103.71667	0.98613
103.71667	0.95794
103.71667	0.96100
103.71667	1.00514
103.71667	1.02883
103.70000	1.03124
103.70000	1.04333
103.70000	1.04365
103.70000	1.02996
103.70000	1.02013
103.68333	1.02238
103.68333	1.03076
103.65000	1.04462
103.40000	1.01739
103.23333	0.95778
103.18333	0.99741
103.13333	1.03108
103.06667	1.02979
103.01667	1.03592
103.00000	1.04913
103.00000	1.05122
103.00000	1.04059
103.00000	1.02867
103.00000	1.00208
103.00000	0.92459
103.00000	0.91782
103.00000	0.90816
102.98333	0.90880
102.98333	0.95117
102.95000	0.97163
102.91667	1.00837
102.83333	1.02657
102.73333	1.04816
102.68333	1.05590
102.65000	1.05396
102.63333	1.05880
102.61667	1.05477
102.60000	1.05251
102.60000	1.05638
102.60000	1.05509
102.58333	1.05187
102.58333	1.05767
102.56667	1.05992
102.56667	1.05300
102.55000	1.05783
102.51667	1.05283
102.48333	1.05928
102.45000	1.06363
102.38333	1.06927
102.31667	1.06798
102.26667	1.06363
102.20000	1.07136
102.08333	1.04494
101.96667	0.99274
101.88333	0.96213
101.81667	0.95568
101.76667	0.93909
101.73333	0.94908
101.71667	0.97614
101.70000	1.01562
101.66667	1.07040
101.66667	1.07410
101.65000	1.07893
101.61667	1.07523
101.56667	1.05606
101.46667	1.03672
101.38333	1.01094
101.35000	1.03124
101.35000	1.06975
101.33333	1.09005
101.31667	1.08602
101.30000	1.08264
101.25000	1.08038
101.16667	1.07330
101.08333	1.08328
101.05000	1.07265
101.01667	1.05896
100.98333	1.02416
100.96667	1.01964
100.95000	1.03269
100.91667	1.02238
100.85000	1.02561
100.76667	1.03447
100.68333	1.05396
100.63333	1.05654
100.60000	1.04220
100.58333	1.03688
100.58333	1.03914
100.58333	1.04800
100.58333	1.05976
100.58333	1.06621
100.58333	1.07603
100.58333	1.08135
100.58333	1.07201
100.60000	1.07265
100.60000	1.06669
100.60000	0.98066
100.58333	0.96471
100.58333	0.97179
100.58333	0.97808
100.58333	1.02770
100.58333	1.04236
100.58333	1.03753
100.58333	1.02029
100.58333	1.02448
100.58333	0.98678
100.58333	0.98742
100.58333	1.00482
100.60000	1.03189
100.60000	1.05251
100.60000	1.04301
100.60000	1.04478
100.60000	1.02706
100.58333	1.03157
100.58333	1.02625
100.56667	0.94521
100.55000	0.85064
100.48333	0.86079
100.41667	0.91122
100.33333	1.01819
100.23333	1.09778
100.16667	1.11180
100.13333	1.11309
100.11667	1.10729
100.10000	1.11100
100.08333	1.11116
100.05000	1.11245
100.00000	1.12147
99.93333	1.12002
99.83333	1.11551
99.76667	1.09778
99.66667	1.11647
99.55000	1.13500
99.46667	1.11841
99.40000	1.09650
99.36667	1.09118
99.31667	1.05171
99.25000	1.04059
99.18333	1.01449
99.08333	1.00853
98.98333	1.04204
98.90000	1.06637
98.81667	1.06572
98.70000	1.02271
98.55000	0.94940
98.41667	0.86949
98.31667	0.86852
98.25000	0.99016
98.23333	1.06460
98.21667	1.11663
98.21667	1.12550
98.20000	1.13291
98.20000	1.15079
98.18333	1.16690
98.18333	1.17109
98.16667	1.17302
98.13333	1.17254
98.10000	1.18011
98.08333	1.18221
98.06667	1.17351
98.06667	1.15337
98.06667	1.14080
98.05000	1.10101
98.00000	1.02109
97.90000	1.03785
97.80000	1.07700
97.73333	1.10520
97.66667	1.14193
97.58333	1.16900
97.51667	1.19348
97.46667	1.18575
97.41667	1.16368
97.38333	1.14177
97.33333	1.11341
97.28333	1.08828
97.21667	1.07056
97.16667	1.08345
97.15000	1.12340
97.13333	1.16303
97.13333	1.17915
97.11667	1.19477
97.10000	1.18414
97.03333	1.17689
96.96667	1.17302
96.93333	1.17947
96.90000	1.19058
96.86667	1.19220
96.78333	1.16545
96.66667	1.13726
96.51667	1.09118
96.36667	1.02625
96.20000	0.96906
96.15000	0.92910
96.13333	0.94424
96.13333	0.97921
96.13333	0.97373
96.13333	0.97921
96.15000	1.05235
96.15000	1.12211
96.15000	1.21395
96.15000	1.19880
96.15000	1.19816
96.15000	1.21781
96.13333	1.16078
96.13333	0.92040
96.13333	1.08216
96.13333	1.20444
96.13333	1.22603
96.13333	1.22812
96.13333	1.23183
96.13333	1.22087
96.15000	1.21201
96.15000	1.19542
96.15000	1.21040
96.15000	1.20879
96.15000	1.21813
96.15000	1.23441
96.15000	1.24730
96.15000	1.25149
96.15000	1.24617
96.15000	1.21942
96.15000	1.21427
96.15000	1.24134
96.15000	1.20911
96.13333	1.11486
96.13333	1.11148
96.13333	0.29964
96.13333	0.00351
96.13333	0.00770
96.13333	0.00351
96.13333	-0.00261
96.15000	1.01159
96.15000	1.23650
96.15000	1.23602
96.15000	1.23940
96.15000	1.23296
96.16667	1.23038
96.16667	1.21491
96.16667	1.16175
96.16667	1.14161
96.16667	1.10197
96.16667	1.16706
96.16667	1.20347
96.16667	1.22361
96.16667	1.24246
96.16667	1.23199
96.16667	1.22973
96.16667	1.24311
96.16667	1.23570
96.16667	1.22168
96.16667	1.21233
96.16667	1.22103
96.16667	1.20025
96.16667	1.16110
96.16667	1.12147
96.15000	1.08264
96.15000	1.20170
96.13333	1.23441
96.13333	1.24279
96.11667	1.23457
96.11667	1.16916
96.11667	1.09940
96.11667	1.03801
96.11667	1.02931
96.11667	1.09360
96.11667	1.10552
96.11667	1.09408
96.11667	1.09392
96.11667	1.12985
96.11667	1.16239
96.11667	1.19139
96.11667	1.21636
96.11667	1.24359
96.11667	1.24037
96.11667	1.23650
96.11667	1.23682
96.11667	1.23747
96.11667	1.23441
96.11667	1.23811
96.11667	1.23392
96.10000	1.21781
96.08333	1.20686
95.96667	1.21314
95.83333	1.22136
95.71667	1.23634
95.61667	1.25729
95.53333	1.24762
95.45000	1.20637
95.40000	1.16980
95.33333	1.18672
95.26667	1.23054
95.18333	1.26002
95.11667	1.26518
95.05000	1.14016
94.95000	1.06476
94.86667	1.12034
94.81667	1.25165
94.80000	1.27291
94.78333	1.27130
94.73333	1.29370
94.61667	1.29418
94.51667	1.24826
94.45000	1.20073
94.38333	1.18172
94.33333	1.14032
94.23333	1.04107
94.08333	0.81197
93.98333	0.63282
93.95000	0.68389
93.93333	0.90381
93.91667	0.92217
93.90000	0.96664
93.90000	1.04478
93.90000	1.18752
93.90000	1.28677
93.90000	1.28629
93.90000	1.29450
93.90000	1.32012
93.90000	1.32479
93.90000	1.33124
93.90000	1.32592
93.90000	1.30062
93.90000	1.28032
93.88333	1.25020
93.85000	1.24633
93.76667	1.26582
93.66667	1.29482
93.58333	1.29740
93.50000	1.30997
93.43333	1.30465
93.40000	1.30739
93.36667	1.31094
93.30000	1.32286
93.23333	1.33301
93.18333	1.33832
93.11667	1.33977
93.06667	1.34574
93.01667	1.35556
92.96667	1.34831
92.91667	1.36201
92.88333	1.37393
92.85000	1.36877
92.83333	1.35476
92.83333	1.35266
92.83333	1.35524
92.83333	1.37232
92.83333	1.36491
92.83333	1.22555
92.83333	0.24115
92.83333	0.05555
92.83333	0.49861
92.85000	0.74882
92.85000	0.85998
92.85000	0.98726
92.85000	0.95359
92.85000	1.01014
92.85000	1.03479
92.85000	1.12775
92.86667	1.10358
92.86667	1.13838
92.86667	1.17157
92.86667	1.28113
92.86667	1.30256
92.86667	1.31593
92.86667	1.28951
92.86667	1.25906
92.86667	1.30578
92.86667	1.35605
92.86667	1.36378
92.86667	1.35895
92.85000	1.34622
92.83333	1.33188
92.75000	1.32656
92.60000	1.34847
92.45000	1.36926
92.36667	1.37683
92.33333	1.37200
92.28333	1.37393
92.23333	1.37087
92.16667	1.37619
92.11667	1.38021
92.03333	1.39681
91.90000	1.40438
91.76667	1.39375
91.65000	1.37039
91.53333	1.34670
91.45000	1.35041
91.36667	1.37329
91.28333	1.41066
91.18333	1.41228
91.10000	1.42629
91.01667	1.41840
90.93333	1.41308
90.83333	1.38779
90.73333	1.34992
90.63333	1.31319
90.53333	1.26019
90.48333	1.22909
90.45000	1.23699
90.41667	1.28806
90.40000	1.37264
90.38333	1.45320
90.36667	1.47817
90.35000	1.47833
90.33333	1.48252
90.28333	1.48816
90.25000	1.48687
90.20000	1.49315
90.15000	1.49460
90.08333	1.48639
90.03333	1.48913
89.96667	1.48188
89.91667	1.48333
89.86667	1.48961
89.78333	1.47624
89.68333	1.46576
89.56667	1.43741
89.38333	1.38617
89.23333	1.33849
89.11667	1.27259
88.98333	1.17721
88.90000	1.08490
88.81667	1.00531
88.76667	0.95826
88.71667	0.92121
88.63333	0.88189
88.56667	0.83920
88.51667	0.83404
88.48333	0.92652
88.46667	1.07716
88.45000	1.27211
88.45000	1.40567
88.45000	1.42307
88.43333	1.43177
88.43333	1.42968
88.43333	1.42404
88.43333	1.45481
88.41667	1.50073
88.41667	1.54632
88.41667	1.55776
88.41667	1.56710
88.41667	1.56259
88.41667	1.55905
88.41667	1.56404
88.41667	1.55325
88.41667	1.54713
88.41667	1.52135
88.41667	1.48945
88.43333	1.48478
88.43333	1.48300
88.43333	1.48945
88.43333	1.48204
88.43333	1.45014
88.43333	1.45384
88.43333	1.44853
88.43333	1.42871
88.43333	1.42516
88.45000	1.42613
88.45000	1.43113
88.45000	1.44063
88.45000	1.43725
88.45000	1.39230
88.45000	1.31625
88.45000	1.18221
88.45000	0.91009
88.45000	0.60381
88.45000	0.45608
88.45000	0.36891
88.45000	0.33621
88.45000	0.41354
88.45000	0.43739
88.45000	0.54533
88.45000	0.63056
88.45000	0.76074
88.45000	0.87722
88.45000	0.86272
88.45000	0.78797
88.43333	0.74189
88.43333	0.72465
88.43333	0.79409
88.43333	0.83340
88.43333	0.87545
88.43333	0.92298
88.43333	0.95391
88.43333	0.97534
88.43333	1.00353
88.45000	1.17318
88.45000	1.31077
88.46667	1.38505
88.46667	1.44530
88.48333	1.45658
88.48333	1.45755
88.50000	1.46593
88.50000	1.50524
88.50000	1.53005
88.50000	1.54261
88.50000	1.56420
88.50000	1.55550
88.50000	1.55164
88.50000	1.52940
88.50000	1.51990
88.48333	1.48445
88.48333	1.45416
88.46667	1.41308
88.45000	1.41872
88.43333	1.49219
88.41667	1.55389
88.41667	1.58853
88.40000	1.58048
88.33333	1.59385
88.20000	1.57806
88.05000	1.49154
87.96667	1.40809
87.91667	1.41791
87.86667	1.48864
87.81667	1.54052
87.78333	1.57484
87.73333	1.58531
87.70000	1.60190
87.66667	1.62108
87.63333	1.62768
87.60000	1.62800
87.53333	1.62462
87.46667	1.61640
87.41667	1.62108
87.31667	1.63203
87.21667	1.62865
87.10000	1.62494
87.01667	1.62623
86.96667	1.62027
86.93333	1.61818
86.90000	1.63719
86.88333	1.64798
86.86667	1.65314
86.86667	1.66345
86.85000	1.66071
86.81667	1.66135
86.76667	1.65700
86.68333	1.66603
86.61667	1.66635
86.56667	1.66393
86.51667	1.66490
86.46667	1.65620
86.41667	1.66425
86.36667	1.67698
86.26667	1.68971
86.15000	1.69809
86.01667	1.67779
85.90000	1.63364
85.80000	1.60835
85.75000	1.60239
85.71667	1.59594
85.68333	1.62768
85.68333	1.67005
85.66667	1.69857
85.66667	1.72822
85.66667	1.72934
85.65000	1.72886
85.63333	1.72677
85.55000	1.73273
85.41667	1.73192
85.30000	1.74691
85.20000	1.74674
85.10000	1.74062
84.98333	1.75577
84.86667	1.76704
84.71667	1.77558
84.51667	1.74819
84.26667	1.67328
84.05000	1.51909
83.91667	1.26792
83.86667	1.13661
83.85000	1.13081
83.85000	1.22458
83.86667	1.48558
83.86667	1.74288
83.86667	1.81908
83.86667	1.81296
83.86667	1.82360
83.86667	1.82440
83.86667	1.80474
83.86667	1.77881
83.86667	1.75641
83.86667	1.78783
83.86667	1.81570
83.86667	1.78444
83.86667	1.73434
83.86667	1.40164
83.86667	1.15015
83.86667	1.19687
83.86667	1.23296
83.86667	1.29096
83.86667	1.33365
83.86667	1.54052
83.86667	1.66715
83.88333	1.69406
83.88333	1.64605
83.88333	1.71565
83.88333	1.79121
83.88333	1.82311
83.88333	1.80636
83.90000	1.80942
83.90000	1.79927
83.93333	1.78509
83.93333	1.81667
83.93333	1.81135
83.93333	1.80990
83.93333	1.80942
83.93333	1.81763
83.93333	1.80829
83.93333	1.74997
83.93333	1.70357
83.93333	1.64637
83.93333	1.66699
83.93333	1.72596
83.93333	1.80942
83.95000	1.79427
83.95000	1.80603
83.95000	1.79073
83.95000	1.79556
83.93333	1.81941
83.93333	1.81925
83.91667	1.82053
83.91667	1.82150
83.91667	1.80748
83.90000	1.80346
83.90000	1.80297
83.88333	1.81344
83.85000	1.82617
83.75000	1.82215
83.55000	1.82537
83.38333	1.85034
83.28333	1.85807
83.21667	1.86242
83.16667	1.85888
83.08333	1.86806
82.98333	1.86855
82.88333	1.87950
82.81667	1.87934
82.73333	1.87547
82.66667	1.87966
82.60000	1.89158
82.53333	1.89593
82.50000	1.91333
82.45000	1.92058
82.41667	1.93670
82.36667	1.92945
82.31667	1.92622
82.28333	1.92493
82.25000	1.92477
82.21667	1.92896
82.20000	1.93750
82.15000	1.92896
82.11667	1.94250
82.05000	1.93154
81.96667	1.92510
81.88333	1.91495
81.88333	1.94153
81.86667	1.88240
81.83333	1.81522
81.81667	1.84486
81.76667	1.85678
81.71667	1.93122
81.66667	1.95716
81.65000	1.96666
81.61667	1.96924
81.58333	1.97488
81.55000	1.97472
81.50000	1.96570
81.40000	1.95651
81.31667	1.92945
81.28333	1.88836
81.25000	1.86452
81.21667	1.81054
81.18333	1.76318
81.15000	1.74046
81.10000	1.72516
81.05000	1.68600
81.01667	1.68407
80.96667	1.71855
80.91667	1.77075
80.86667	1.83165
80.83333	1.95426
80.83333	2.01548
80.81667	2.02966
80.80000	2.03336
80.78333	2.03836
80.76667	2.03836
80.75000	2.03449
80.70000	2.02660
80.63333	2.01210
80.53333	1.97971
80.41667	1.93444
80.35000	1.91994
80.31667	1.95329
80.30000	2.02064
80.28333	2.07219
80.28333	2.08331
80.28333	2.07993
80.26667	2.08814
80.26667	2.08009
80.25000	2.08411
80.21667	2.08653
80.16667	2.08975
80.10000	2.08798
80.01667	2.07606
79.93333	2.05898
79.83333	2.04013
79.75000	2.01838
79.71667	2.02064
79.70000	2.06881
79.68333	2.07074
79.66667	2.08395
79.65000	2.08428
79.65000	2.05801
79.65000	2.03481
79.65000	1.97617
79.63333	1.98374
79.61667	2.03175
79.55000	2.08218
79.48333	2.09024
79.45000	2.08138
79.41667	2.06945
79.38333	2.04641
79.35000	2.03949
79.30000	2.01999
79.25000	2.01661
79.21667	2.01612
79.20000	2.01983
79.18333	2.03272
79.16667	2.04480
79.15000	2.05431
79.11667	2.07123
79.11667	2.10280
79.10000	2.12085
79.08333	2.14518
79.06667	2.15662
79.05000	2.15726
79.00000	2.14985
78.98333	2.14647
78.96667	2.14775
78.95000	2.13180
78.90000	2.12198
78.70000	2.05286
78.48333	1.91108
78.35000	1.57822
78.33333	1.51088
78.33333	1.55953
78.33333	1.54052
78.33333	1.50121
78.33333	1.46077
78.31667	1.43596
78.30000	1.44788
78.25000	1.41292
78.25000	1.43209
78.25000	1.51684
78.25000	1.69809
78.25000	1.87596
78.25000	1.92042
78.25000	1.92993
78.25000	1.75142
78.26667	1.76592
78.26667	1.80700
78.28333	1.84696
78.30000	2.06156
78.33333	2.10039
78.38333	2.09700
78.43333	2.19931
78.43333	2.18642
78.43333	2.17949
78.43333	2.14405
78.43333	2.13599
78.45000	2.15855
78.45000	2.18288
78.45000	2.18739
78.45000	2.20849
78.45000	2.21816
78.45000	2.21252
78.46667	2.21107
78.46667	2.21639
78.46667	2.21317
78.46667	2.20930
78.46667	2.20962
78.46667	2.19270
78.48333	2.18884
78.48333	2.18610
78.50000	2.17176
78.50000	2.16628
78.50000	2.18159
78.50000	2.21655
78.50000	2.21204
78.50000	2.19995
78.50000	2.18852
78.50000	2.19867
78.50000	2.19641
78.48333	2.16999
78.50000	2.12794
78.50000	2.09475
78.50000	2.10441
78.48333	2.14759
78.48333	2.13712
78.46667	2.15114
78.46667	2.14260
78.45000	2.15162
78.45000	2.15436
78.43333	2.14727
78.41667	2.12665
78.41667	2.10731
78.38333	2.12810
78.36667	2.19834
78.36667	2.19045
78.35000	2.08089
78.35000	2.11537
78.35000	2.18078
78.33333	2.22686
78.33333	2.12310
78.31667	1.97552
78.23333	1.95619
78.05000	2.06091
77.90000	2.08556
77.73333	2.14083
77.63333	2.19673
77.63333	2.22960
77.63333	2.27922
77.65000	2.23620
77.65000	2.21349
77.63333	2.20994
77.63333	2.28067
77.63333	2.28083
77.61667	2.26521
77.61667	2.24426
77.60000	2.24249
77.60000	2.25634
77.55000	2.26714
77.48333	2.27552
77.41667	2.29243
77.33333	2.30758
77.26667	2.30871
77.21667	2.31144
77.18333	2.30693
77.13333	2.31612
77.08333	2.32788
77.03333	2.33658
76.98333	2.34544
76.95000	2.34254
76.91667	2.34028
76.86667	2.33013
76.83333	2.33223
76.76667	2.30564
76.66667	2.27455
76.61667	2.24378
76.58333	2.20157
76.56667	2.12343
76.56667	2.06011
76.56667	2.07541
76.56667	2.14228
76.56667	2.23137
76.55000	2.27278
76.51667	2.30017
76.43333	2.29904
76.36667	2.26972
76.31667	2.24442
76.28333	2.22235
76.25000	2.22219
76.23333	2.21284
76.20000	2.24909
76.15000	2.29243
76.11667	2.34463
76.10000	2.38282
76.08333	2.39393
76.06667	2.40006
76.05000	2.40908
76.03333	2.40795
76.01667	2.42181
76.00000	2.41278
75.95000	2.40940
75.85000	2.38040
75.80000	2.36075
75.73333	2.37315
75.66667	2.43776
75.60000	2.46531
75.50000	2.47804
75.40000	2.48802
75.33333	2.50269
75.28333	2.50607
75.21667	2.51042
75.16667	2.50688
75.11667	2.50849
75.05000	2.51123
74.98333	2.52025
74.93333	2.52718
74.90000	2.53120
74.85000	2.53330
74.81667	2.53636
74.78333	2.53136
74.76667	2.53475
74.75000	2.54812
74.71667	2.54715
74.68333	2.55199
74.65000	2.55102
74.60000	2.55795
74.51667	2.56359
74.36667	2.58679
74.31667	2.57954
74.30000	2.58920
74.28333	2.59613
74.26667	2.60032
74.21667	2.59339
74.11667	2.50945
73.96667	2.48835
73.85000	2.56939
73.76667	2.64318
73.70000	2.64769
73.63333	2.58985
73.56667	2.46611
73.53333	2.39667
73.50000	2.26521
73.48333	2.22090
73.48333	2.20737
73.48333	2.24861
73.48333	2.30871
73.48333	2.34898
73.48333	2.43373
73.50000	2.46934
73.50000	2.55392
73.51667	2.54860
73.53333	2.60918
73.53333	2.66187
73.56667	2.50011
73.61667	2.45790
73.66667	2.54377
73.70000	2.56359
73.70000	2.56407
73.70000	2.59001
73.70000	2.58163
73.70000	2.57535
73.70000	2.57486
73.71667	2.55005
73.71667	2.46466
73.73333	2.42922
73.73333	2.33320
73.73333	2.29888
73.75000	2.25973
73.75000	2.24587
73.75000	2.27761
73.75000	2.38088
73.75000	2.42068
73.75000	2.43502
73.73333	2.44823
73.73333	2.46112
73.73333	2.49898
73.73333	2.51944
73.73333	2.55601
73.73333	2.60193
73.73333	2.62723
73.73333	2.63673
73.73333	2.62272
73.73333	2.63641
73.71667	2.64269
73.71667	2.64656
73.71667	2.65027
73.70000	2.64882
73.68333	2.62320
73.66667	2.54264
73.65000	2.46998
73.63333	2.46080
73.63333	2.45870
73.63333	2.53201
73.61667	2.60242
73.60000	2.63287
73.56667	2.63657
73.46667	2.63061
73.41667	2.60403
73.36667	2.58824
73.30000	2.60080
73.20000	2.63979
73.08333	2.64592
73.00000	2.65010
72.90000	2.65558
72.76667	2.68652
72.60000	2.70939
72.43333	2.70118
72.30000	2.68458
72.23333	2.70408
72.20000	2.72035
72.18333	2.73743
72.15000	2.75064
72.13333	2.76643
72.11667	2.78737
72.11667	2.80381
72.11667	2.82250
72.11667	2.82024
72.11667	2.82733
72.10000	2.82669
72.00000	2.83861
71.85000	2.82604
71.71667	2.79640
71.58333	2.78673
71.53333	2.84183
71.51667	2.88614
71.50000	2.89258
71.48333	2.90450
71.45000	2.90756
71.43333	2.90354
71.40000	2.90031
71.38333	2.88936
71.35000	2.87293
71.31667	2.86761
71.26667	2.87711
71.18333	2.89323
71.06667	2.92029
70.96667	2.93222
70.90000	2.94672
70.83333	2.95090
70.81667	2.95107
70.80000	2.87518
70.78333	2.75467
70.71667	2.80397
70.65000	2.84715
70.58333	2.88501
70.53333	2.89355
70.46667	2.90998
70.40000	2.91900
70.36667	2.95767
70.31667	2.98796
70.26667	3.03114
70.16667	3.04935
70.10000	3.06513
70.05000	3.07255
70.03333	3.07303
70.00000	3.07448
69.96667	3.06272
69.91667	3.03613
69.86667	3.01986
69.83333	3.02115
69.80000	3.05160
69.76667	3.08318
69.73333	3.10155
69.71667	3.10896
69.71667	3.10960
69.71667	3.11395
69.71667	3.11621
69.70000	3.11331
69.70000	3.10396
69.68333	3.11282
69.68333	3.11717
69.68333	3.12749
69.66667	3.12620
69.66667	3.09397
69.66667	3.11540
69.66667	3.11846
69.66667	3.10042
69.65000	3.09156
69.65000	3.10122
69.65000	3.11427
69.65000	3.12797
69.65000	3.12813
69.65000	3.12781
69.65000	3.12249
69.65000	3.12604
69.65000	3.12716
69.65000	3.12120
69.65000	3.11653
69.65000	3.09043
69.65000	3.07174
69.61667	3.06530
69.53333	3.07770
69.45000	3.05805
69.41667	3.11734
69.38333	3.15262
69.33333	3.15149
69.26667	3.16809
69.16667	3.17179
69.08333	3.15262
69.01667	3.13570
68.93333	3.08511
68.85000	2.95928
68.83333	2.90112
68.80000	2.84505
68.75000	2.82072
68.70000	2.82991
68.56667	2.92126
68.41667	3.04596
68.30000	3.19821
68.23333	3.26959
68.23333	3.30294
68.23333	3.30874
68.23333	3.28860
68.21667	3.26298
68.21667	3.20031
68.21667	3.13296
68.21667	2.97765
68.20000	2.88581
68.15000	2.94672
68.06667	3.10332
67.98333	3.23285
67.90000	3.28876
67.85000	3.30954
67.83333	3.31744
67.83333	3.32002
67.81667	3.33822
67.81667	3.35369
67.80000	3.36223
67.78333	3.37818
67.75000	3.38462
67.71667	3.37560
67.68333	3.36368
67.63333	3.37415
67.56667	3.36996
67.51667	3.38430
67.46667	3.38108
67.43333	3.39671
67.40000	3.41395
67.38333	3.41588
67.35000	3.42249
67.31667	3.42764
67.26667	3.43699
67.21667	3.41427
67.16667	3.37560
67.15000	3.35417
67.13333	3.35353
67.11667	3.33500
67.11667	3.39574
67.10000	3.43183
67.08333	3.43586
67.05000	3.44295
67.01667	3.42506
66.96667	3.42265
66.91667	3.40863
66.83333	3.38591
66.70000	3.35256
66.53333	3.35353
66.41667	3.36964
66.33333	3.37625
66.28333	3.32453
66.23333	3.32195
66.20000	3.40879
66.18333	3.43763
66.18333	3.44826
66.18333	3.52286
66.16667	3.59101
66.16667	3.59939
66.13333	3.59536
66.11667	3.60438
66.08333	3.62517
66.03333	3.60841
65.98333	3.57990
65.93333	3.56813
65.83333	3.58924
65.75000	3.65836
65.68333	3.69219
65.65000	3.68881
65.61667	3.68800
65.56667	3.69960
65.48333	3.72442
65.36667	3.74085
65.25000	3.74375
65.15000	3.74778
65.06667	3.74665
64.98333	3.74407
64.91667	3.78338
64.86667	3.79386
64.80000	3.79643
64.75000	3.79821
64.65000	3.80771
64.55000	3.82302
64.46667	3.82705
64.40000	3.82479
64.31667	3.83575
64.23333	3.88038
64.15000	3.92194
64.06667	3.95755
64.01667	3.95900
63.98333	3.96931
63.93333	3.97125
63.90000	3.98865
63.81667	4.00105
63.71667	4.01829
63.61667	4.02409
63.53333	4.02441
63.41667	4.00073
63.31667	3.94514
63.21667	3.90841
63.11667	3.96689
63.03333	4.00153
63.03333	3.58070
63.01667	3.27829
63.01667	3.19773
63.01667	3.28796
63.01667	3.44198
63.00000	3.62662
62.96667	3.81528
62.93333	3.99267
62.90000	4.06614
62.86667	4.12398
62.83333	4.16620
62.76667	4.17264
62.73333	4.17216
62.70000	4.17490
62.70000	4.18489
62.70000	4.19407
62.70000	4.19117
62.68333	4.19310
62.66667	4.20067
62.63333	4.20680
62.58333	4.21356
62.48333	4.20760
62.23333	4.15943
62.03333	3.87731
61.98333	3.60567
61.96667	3.49048
61.96667	3.46019
61.95000	3.43409
61.93333	3.47066
61.90000	3.46985
61.83333	3.19902
61.73333	2.65929
61.66667	2.44066
61.61667	2.29856
61.56667	2.57003
61.53333	2.87003
61.48333	3.05047
61.45000	3.32388
61.45000	3.50272
61.43333	3.68333
61.41667	3.63129
61.41667	3.37141
61.41667	3.11331
61.41667	2.94752
61.41667	3.24784
61.41667	4.02329
61.41667	4.31088
61.41667	4.30911
61.41667	4.30927
61.41667	4.31523
61.41667	4.30717
61.41667	4.07259
61.43333	3.92984
61.43333	3.81061
61.43333	3.79595
61.43333	3.83768
61.43333	3.85637
61.43333	3.98075
61.43333	4.11544
61.43333	4.18924
61.43333	4.20583
61.43333	4.18424
61.43333	4.11174
61.43333	4.06211
61.45000	4.10159
61.45000	4.20712
61.46667	4.31990
61.46667	4.31281
61.46667	4.32006
61.46667	4.31619
61.46667	4.27833
61.46667	4.26045
61.46667	4.24256
61.46667	4.25997
61.48333	4.32232
61.48333	4.30975
61.50000	4.31910
61.50000	4.28591
61.50000	4.31700
61.50000	4.30733
61.50000	4.25642
61.50000	4.30411
61.50000	4.30878
61.50000	4.31716
61.50000	4.31313
61.50000	4.31958
61.50000	4.31861
61.50000	4.31668
61.51667	4.29058
61.51667	4.23821
61.51667	4.13816
61.51667	4.08564
61.51667	4.02764
61.51667	3.98736
61.51667	4.01861
61.51667	4.09965
61.51667	4.03231
61.51667	4.05019
61.50000	4.06421
61.50000	4.03134
61.50000	4.09853
61.48333	4.13156
61.48333	4.18005
61.48333	4.24498
61.46667	4.29138
61.46667	4.31394
61.45000	4.31555
61.41667	4.31910
61.31667	4.31958
61.25000	4.30991
61.16667	4.32087
61.11667	4.31039
61.06667	4.31877
61.05000	4.31088
61.01667	4.31426
61.01667	4.31281
61.00000	4.31442
60.95000	4.31410
60.88333	4.31974
60.75000	4.31394
60.61667	4.32022
60.56667	4.31297
60.55000	4.32119
60.53333	4.31668
60.53333	4.32071
60.48333	4.31845
60.38333	4.31378
60.26667	4.31910
60.15000	4.29122
60.03333	4.10175
59.90000	3.84880
59.78333	3.51706
59.71667	3.40396
59.65000	3.21433
59.60000	3.10735
59.55000	3.17244
59.48333	3.60761
59.43333	3.80288
59.38333	3.92017
59.31667	3.99638
59.23333	4.06276
59.15000	4.15830
59.06667	4.29074
59.01667	4.31716
59.00000	4.31458
58.98333	4.31104
58.96667	4.30991
58.95000	4.32167
58.95000	4.31249
58.95000	4.31958
58.95000	4.31684
58.93333	4.31555
58.93333	4.31732
58.93333	4.31829
58.93333	4.31507
58.91667	4.31910
58.91667	4.31652
58.90000	4.31926
58.88333	4.31072
58.85000	4.31603
58.83333	4.31410
58.80000	4.32006
58.78333	4.31652
58.78333	4.31926
58.76667	4.31700
58.75000	4.32183
58.70000	4.31458
58.58333	4.32087
58.48333	4.31748
58.40000	4.32183
58.33333	4.31813
58.26667	4.32022
58.20000	4.32119
58.15000	4.31893
58.08333	4.32022
58.05000	4.32248
58.03333	4.31442
58.00000	4.31539
58.00000	4.31845
57.98333	4.31829
57.98333	4.32167
57.98333	4.31926
57.96667	4.31829
57.96667	4.31926
57.96667	4.31555
57.96667	4.32200
57.96667	4.31732
57.96667	4.32280
57.95000	4.32071
57.95000	4.31732
57.95000	4.31926
57.95000	4.32022
57.95000	4.31716
57.95000	4.32103
57.95000	4.31716
57.95000	4.31507
57.96667	4.31603
57.96667	4.32232
57.96667	4.31990
57.96667	4.31781
57.95000	4.31394
57.95000	4.31587
57.95000	4.31910
57.95000	4.31587
57.95000	4.31797
57.95000	4.31491
57.95000	4.31958
57.93333	4.31942
57.93333	4.32119
57.91667	4.32200
57.90000	4.31845
57.86667	4.31281
57.85000	4.31926
57.85000	4.31523
57.83333	4.31700
57.83333	4.31619
57.83333	4.31942
57.83333	4.31974
57.83333	4.31652
57.83333	4.31668
57.83333	4.32216
57.83333	4.31990
57.81667	4.32022
57.81667	4.31619
57.78333	4.31668
57.75000	4.31990
57.73333	4.31587
57.68333	4.31652
57.66667	4.31748
57.65000	4.32328
57.63333	4.32071
57.63333	4.32216
57.61667	4.31732
57.58333	4.32022
57.58333	4.31668
57.56667	4.31990
57.56667	4.31507
57.56667	4.31619
57.56667	4.32022
57.56667	4.31700
57.58333	4.31829
57.58333	4.31765
57.58333	4.31716
57.58333	4.31910
57.58333	4.32071
57.58333	4.31249
57.58333	4.31474
57.58333	4.31603
57.58333	4.32361
57.56667	4.31281
57.56667	4.31716
57.55000	4.31571
57.48333	4.32264
57.38333	4.32377
57.31667	4.31684
57.26667	4.31781
57.18333	4.32377
57.08333	4.31797
56.96667	4.32071
56.86667	4.31829
56.71667	4.31603
56.56667	4.31990
56.40000	4.31523
56.18333	4.31652
55.88333	4.31829
55.51667	4.31797
55.25000	4.31217
55.15000	4.31813
55.08333	4.31700
55.01667	4.32328
54.95000	4.30991
54.88333	4.32022
54.73333	4.32167
54.50000	4.31829
54.30000	4.32055
54.20000	4.32022
54.10000	4.31491
54.00000	4.31684
53.91667	4.31797
53.78333	4.32055
53.66667	4.32055
53.55000	4.31845
53.41667	4.31684
53.28333	4.32377
53.10000	4.31491
52.98333	4.31684
52.90000	4.32232
52.80000	4.31893
52.75000	4.32071
52.65000	4.31877
52.46667	4.32103
52.26667	4.32200
52.15000	4.32216
52.00000	4.32457
51.83333	4.31813
51.75000	4.32264
51.65000	4.31845
51.51667	4.31877
51.36667	4.31184
51.23333	4.31281
51.10000	4.31716
50.95000	4.32264
50.78333	4.31700
50.61667	4.32216
50.50000	4.31942
50.36667	4.32441
50.26667	4.31394
50.11667	4.32264
50.00000	4.31893
49.86667	4.31781
49.78333	4.31426
49.71667	4.32135
49.60000	4.32038
49.50000	4.32232
49.41667	4.31829
49.35000	4.32103
49.25000	4.31700
49.10000	4.32167
48.98333	4.32280
48.80000	4.31668
48.65000	4.32522
48.53333	4.31410
48.40000	4.32264
48.30000	4.31974
48.18333	4.31539
48.06667	4.31893
47.91667	4.32183
47.81667	4.31781
47.80000	4.31765
47.80000	4.31893
47.80000	4.31829
47.81667	4.31442
47.81667	4.31636
47.83333	4.32022
47.85000	4.31797
47.93333	4.31426
47.93333	4.31958
47.93333	4.32055
47.93333	4.32200
47.93333	4.31603
47.95000	4.31539
47.95000	4.31893
47.95000	4.32006
47.95000	4.32296
47.96667	4.31716
47.96667	4.31474
47.96667	4.32022
47.98333	4.31748
47.98333	4.31652
48.00000	4.32441
48.00000	4.32457
48.00000	4.32200
47.98333	4.31684
47.98333	4.31507
47.98333	4.31619
48.00000	4.31958
48.00000	4.31539
48.00000	4.31926
48.00000	4.31990
48.00000	4.31813
48.00000	4.32554
48.00000	4.32248
48.01667	4.32457
48.01667	4.31652
48.01667	4.32328
48.01667	4.31716
48.00000	4.31700
48.00000	4.32167
48.00000	4.31942
47.98333	4.32200
47.98333	4.31942
47.98333	4.31781
47.98333	4.32248
47.98333	4.31974
47.98333	4.32425
47.96667	4.31684
47.96667	4.31765
47.95000	4.31668
47.91667	4.31765
47.90000	4.31829
47.86667	4.31700
47.81667	4.31765
47.71667	4.32280
47.60000	4.31297
47.50000	4.32022
47.30000	4.31636
47.08333	4.32038
47.03333	4.31813
46.93333	4.32038
46.78333	4.32006
46.56667	4.31281
46.38333	4.31619
46.16667	4.32264
45.90000	4.31410
45.61667	4.31926
45.40000	4.31797
45.18333	4.32183
45.01667	4.31942
44.88333	4.31942
44.83333	4.32361
44.81667	4.31281
44.80000	4.31700
44.78333	4.31974
44.71667	4.32135
44.58333	4.32312
44.46667	4.32135
44.40000	4.31765
44.33333	4.31571
44.30000	4.32103
44.28333	4.31781
44.20000	3.05660
44.05000	3.43956
43.85000	4.31926
43.65000	4.32119
43.45000	4.32038
43.28333	4.31507
43.11667	4.32038
42.96667	4.31716
42.78333	4.31136
42.60000	4.32167
42.40000	4.31926
42.16667	4.31797
42.03333	4.32361
41.91667	4.31765
41.88333	4.31168
41.88333	4.31861
41.88333	4.32151
41.88333	4.32200
41.88333	4.31571
41.86667	4.31748
41.80000	4.32296
41.70000	4.31845
41.71667	4.32006
41.71667	4.31829
41.71667	4.32135
41.70000	4.32087
41.66667	4.31990
41.51667	4.32232
41.35000	4.31668
41.26667	4.32151
41.21667	4.32119
41.18333	4.32119
41.11667	4.31990
41.01667	4.31394
40.93333	4.31523
40.81667	4.31974
40.70000	4.31861
40.56667	4.32119
40.43333	4.31346
40.33333	4.31748
40.20000	4.32071
39.96667	4.32183
39.68333	4.31845
39.60000	4.20502
39.56667	3.86281
39.55000	4.00266
39.55000	4.31910
39.55000	4.31458
39.56667	4.32151
39.56667	4.31861
39.56667	4.31974
39.55000	4.32377
39.53333	4.32409
39.45000	4.32006
39.33333	4.31861
39.25000	4.31700
39.21667	4.31781
39.20000	4.24627
39.16667	2.71407
39.06667	3.47662
38.93333	4.31539
38.81667	4.32457
38.73333	4.31990
38.60000	4.31958
38.46667	4.31942
38.35000	4.32361
38.23333	4.32183
38.08333	4.32151
37.95000	4.31684
37.81667	4.31845
37.66667	4.31442
37.55000	4.32232
37.43333	4.31571
37.30000	4.32441
37.13333	4.31426
36.98333	4.31716
36.86667	4.32055
36.71667	4.31668
36.56667	4.31893
36.36667	4.32022
36.16667	4.31813
36.00000	4.31861
35.86667	4.31217
35.81667	4.32280
35.76667	4.31587
35.71667	3.69574
35.66667	1.38231
35.63333	0.67213
35.61667	0.67777
35.56667	0.44158
35.46667	0.18782
35.33333	0.10372
35.21667	0.13868
35.16667	0.44238
35.15000	0.67793
35.11667	0.93957
35.08333	1.08055
35.05000	1.38650
35.01667	1.18366
34.95000	0.86917
34.85000	0.72207
34.71667	0.68824
34.65000	0.67503
34.56667	0.81600
34.53333	1.20798
34.50000	1.50024
34.50000	1.99760
34.50000	2.84844
34.48333	2.60209
34.41667	1.97488
34.33333	1.58450
34.28333	1.46544
34.25000	1.48945
34.23333	1.43870
34.18333	1.36700
34.15000	1.38585
34.06667	1.14273
33.93333	0.93200
33.86667	0.85177
33.86667	0.86224
33.86667	0.85934
33.86667	0.88173
33.86667	0.88737
33.86667	1.05557
33.88333	1.86613
33.88333	0.75123
33.90000	0.49055
33.91667	0.56241
33.95000	0.60478
34.01667	0.51520
34.11667	0.49039
34.11667	0.71321
34.11667	1.43403
34.11667	2.22992
34.11667	2.42680
34.11667	2.42116
34.11667	2.38137
34.13333	2.36236
34.13333	2.32562
34.13333	2.36268
34.13333	2.37895
34.13333	2.39458
34.13333	2.32836
34.13333	2.22767
34.13333	2.06494
34.13333	2.19125
34.13333	2.33239
34.13333	2.42358
34.13333	2.50043
34.13333	2.47175
34.11667	2.47369
34.10000	2.42294
34.08333	2.33110
34.05000	2.24297
34.00000	2.05495
33.91667	1.56904
33.78333	0.97163
33.60000	0.68518
33.40000	0.48540
33.31667	0.47090
33.26667	0.47863
33.25000	0.50344
33.21667	0.52809
33.20000	0.55435
33.18333	0.59576
33.13333	0.69404
33.05000	0.92765
32.98333	1.46464
32.91667	2.13245
32.81667	3.70041
32.70000	4.30314
32.51667	4.30766
32.31667	4.31104
32.15000	4.30041
31.93333	4.30894
31.70000	4.30314
31.45000	4.31184
31.23333	4.30975
31.10000	4.31136
31.05000	4.30911
31.01667	4.31023
31.00000	4.31619
31.00000	4.31007
30.98333	4.31265
30.98333	4.30717
30.98333	4.31249
30.98333	4.31056
31.00000	4.31297
31.00000	4.31861
31.00000	4.31072
31.00000	4.31072
31.00000	4.31523
31.00000	4.31056
31.00000	4.31716
30.98333	4.31587
30.98333	4.31474
30.98333	4.31410
30.95000	4.31813
30.80000	4.31539
30.63333	4.31281
30.53333	4.31797
30.46667	4.31619
30.38333	4.31378
30.25000	4.31700
30.15000	4.31507
30.08333	4.31152
30.03333	4.31958
29.96667	4.31394
29.90000	4.31958
29.81667	4.31652
29.61667	4.32087
29.48333	4.23322
29.43333	2.78737
29.38333	1.93186
29.33333	1.30191
29.30000	0.90042
29.28333	0.75043
29.26667	0.65150
29.23333	0.57594
29.21667	0.49796
29.21667	0.44673
29.18333	0.39405
29.11667	0.36054
29.03333	0.40823
28.98333	0.44109
28.91667	0.49104
28.86667	0.55548
28.83333	0.63330
28.78333	0.69919
28.76667	0.73689
28.75000	0.72030
28.75000	0.74205
28.73333	0.71869
28.71667	0.72159
28.71667	0.68389
28.71667	0.61896
28.71667	0.57852
28.71667	0.57836
28.71667	0.53325
28.71667	0.48185
28.71667	0.54581
28.71667	0.81922
28.71667	0.85483
28.71667	0.85579
28.71667	0.36279
28.71667	0.13288
28.71667	0.31865
28.71667	1.00369
28.71667	0.99097
28.71667	0.68083
28.71667	0.60591
28.71667	0.63120
28.71667	0.71208
28.71667	0.75864
28.71667	0.79248
28.70000	0.82422
28.63333	0.90703
28.53333	0.99661
28.35000	1.27630
28.13333	1.66619
27.96667	1.83584
27.86667	1.80861
27.85000	1.83665
27.81667	1.91140
27.75000	2.11763
27.65000	2.42519
27.58333	2.55601
27.56667	2.53749
27.50000	2.53974
27.35000	2.93399
27.16667	3.63806
26.95000	4.30298
26.60000	4.30798
26.40000	4.30685
26.36667	3.94933
26.36667	3.66899
26.35000	3.67109
26.30000	3.95465
26.16667	4.30862
25.96667	4.31281
25.85000	4.30685
25.75000	4.30878
25.68333	4.30943
25.61667	4.31410
25.51667	4.31184
25.36667	4.31152
25.23333	4.31056
25.11667	4.31765
24.98333	4.31023
24.81667	4.31184
24.68333	4.30830
24.53333	4.31072
24.40000	4.31410
24.21667	4.31523
24.10000	4.31297
24.01667	4.31474
23.95000	4.31394
23.88333	4.31603
23.78333	4.31410
23.68333	4.31781
23.60000	4.30894
23.51667	4.31958
23.45000	4.31845
23.38333	4.31877
23.35000	4.31603
23.33333	4.31491
23.30000	4.31700
23.26667	4.31265
23.25000	4.31394
23.23333	4.31555
23.21667	4.31700
23.18333	4.31378
23.06667	4.31217
22.88333	4.32055
22.68333	4.32135
22.61667	4.31313
22.58333	4.31603
22.58333	4.31313
22.56667	4.31942
22.56667	4.31716
22.55000	4.32006
22.51667	4.31765
22.46667	4.31893
22.40000	4.32248
22.31667	4.31958
22.25000	4.31217
22.16667	4.32151
22.06667	4.31845
22.01667	4.31394
22.00000	4.31813
22.00000	4.32216
22.00000	4.32103
22.01667	4.31829
22.03333	4.31652
22.05000	4.31700
22.08333	4.31716
22.15000	4.31861
22.35000	4.32022
22.36667	4.31120
22.36667	4.32103
22.36667	4.31877
22.36667	4.31700
22.36667	4.32409
22.36667	4.32119
22.38333	4.31104
22.38333	4.31458
22.38333	4.31732
22.38333	4.31233
22.38333	4.31877
22.38333	4.31426
22.38333	4.31974
22.38333	4.32087
22.38333	4.32103
22.38333	4.31619
22.36667	4.32361
22.36667	4.32006
22.36667	4.32135
22.35000	4.31603
22.31667	4.31942
22.26667	4.31362
22.13333	4.31926
22.00000	4.32055
21.83333	4.31829
21.61667	4.32345
21.48333	4.32232
21.31667	4.32232
21.20000	4.31184
21.15000	4.32216
21.10000	4.32328
21.06667	4.31313
21.03333	4.31716
21.03333	4.31458
21.03333	4.31636
21.00000	4.31942
20.88333	4.32328
20.80000	4.32055
20.75000	4.32312
20.73333	4.31732
20.71667	4.31587
20.71667	4.32087
20.71667	4.31684
20.71667	4.31668
20.71667	4.31845
20.71667	4.31829
20.73333	4.32022
20.73333	4.32345
20.73333	4.31152
20.75000	4.31893
20.76667	4.31958
20.78333	4.31893
20.78333	4.31684
20.80000	4.32216
20.80000	4.31442
20.80000	4.31732
20.80000	4.31990
20.80000	4.32345
20.80000	4.32747
20.81667	4.32103
20.86667	4.31700
20.86667	3.10428
20.86667	0.61332
20.86667	0.16205
20.86667	0.19588
20.86667	0.16833
20.86667	0.12870
20.86667	0.14626
20.86667	0.21457
20.86667	0.22923
20.86667	0.24115
20.86667	0.26000
20.85000	0.24518
20.85000	0.24486
20.85000	0.25549
20.85000	0.26032
20.85000	0.25469
20.85000	0.25968
20.85000	0.25775
20.85000	0.25791
20.85000	0.25388
20.85000	0.26081
20.85000	0.26000
20.85000	0.25614
20.85000	0.26129
20.85000	0.25936
20.85000	0.25614
20.85000	0.25517
20.85000	0.25887
20.85000	0.26081
20.85000	0.25952
20.85000	0.25678
20.85000	0.25710
20.85000	0.25678
20.85000	0.25984
20.85000	0.25775
20.85000	0.25871
20.85000	0.26016
20.85000	0.26113
20.85000	0.26081
20.85000	0.26484
20.85000	0.25517
20.85000	0.26339