Polarization of Light 'Brewsters' Data File Wed, Nov 19, 2025 7:41 PM
Sensor Position (Degrees)	Light Intensity (Volts)
180.00000	0.22150
180.00000	0.22021
180.00000	0.21554
180.01667	0.21650
180.01667	0.21892
180.00000	0.21521
180.00000	0.22279
180.00000	0.21795
180.00000	0.21360
180.00000	0.21344
180.00000	0.21618
180.00000	0.22069
180.00000	0.21634
180.00000	0.20845
180.00000	0.21199
180.00000	0.21247
179.98333	0.22101
179.96667	0.21328
179.95000	0.22295
179.93333	0.21618
179.93333	0.21521
179.93333	0.21183
179.91667	0.20603
179.90000	0.20716
179.90000	0.20909
179.90000	0.20329
179.90000	0.20700
179.90000	0.21199
179.88333	0.22246
179.88333	0.19910
179.88333	0.20925
179.90000	0.21344
179.90000	0.22069
179.91667	0.21731
179.93333	0.21151
179.95000	0.21924
179.95000	0.21989
179.95000	0.21296
179.95000	0.21409
179.96667	0.21747
179.96667	0.21972
179.96667	0.21715
179.96667	0.21586
179.96667	0.21892
179.96667	0.21827
179.93333	0.21876
179.86667	0.21763
179.78333	0.21731
179.75000	0.21682
179.71667	0.21586
179.68333	0.21989
179.65000	0.21473
179.61667	0.21376
179.58333	0.21876
179.53333	0.21457
179.45000	0.20474
179.35000	0.20716
179.26667	0.20249
179.15000	0.15866
179.10000	0.13192
179.06667	0.13450
179.05000	0.14819
179.01667	0.15254
178.96667	0.15109
178.81667	0.14255
178.63333	0.11887
178.46667	0.09293
178.36667	0.08568
178.31667	0.12290
178.30000	0.16769
178.28333	0.19701
178.26667	0.19201
178.25000	0.20474
178.23333	0.20377
178.23333	0.21038
178.23333	0.21409
178.23333	0.21344
178.21667	0.21956
178.21667	0.22279
178.20000	0.22069
178.16667	0.21956
178.11667	0.22117
178.05000	0.21570
178.00000	0.21167
177.96667	0.21699
177.93333	0.21022
177.86667	0.20990
177.80000	0.21344
177.75000	0.22246
177.70000	0.22117
177.65000	0.21634
177.60000	0.21215
177.55000	0.21586
177.48333	0.21682
177.43333	0.22117
177.33333	0.21972
177.26667	0.21618
177.20000	0.22311
177.16667	0.22246
177.15000	0.22117
177.13333	0.22246
177.13333	0.22198
177.10000	0.21811
177.03333	0.22343
176.95000	0.21602
176.88333	0.21425
176.81667	0.20974
176.71667	0.20780
176.65000	0.20458
176.60000	0.20587
176.58333	0.21199
176.58333	0.21618
176.56667	0.22246
176.56667	0.22150
176.56667	0.22391
176.56667	0.22714
176.56667	0.22295
176.56667	0.22939
176.53333	0.22424
176.46667	0.21570
176.40000	0.22327
176.31667	0.21634
176.26667	0.20893
176.25000	0.20587
176.23333	0.21006
176.21667	0.21264
176.18333	0.20619
176.05000	0.19572
175.80000	0.16720
175.63333	0.15576
175.58333	0.18476
175.58333	0.22069
175.58333	0.21908
175.58333	0.22778
175.56667	0.22101
175.53333	0.20893
175.43333	0.21102
175.33333	0.21811
175.21667	0.22746
175.10000	0.22697
174.96667	0.23406
174.80000	0.21940
174.70000	0.21296
174.65000	0.21699
174.61667	0.21827
174.56667	0.22407
174.50000	0.23487
174.46667	0.23519
174.41667	0.22504
174.38333	0.23213
174.35000	0.23294
174.31667	0.22971
174.28333	0.22617
174.25000	0.22923
174.23333	0.23390
174.23333	0.23132
174.21667	0.22730
174.21667	0.23277
174.20000	0.23471
174.18333	0.22730
174.16667	0.22617
174.15000	0.23358
174.11667	0.22971
174.11667	0.23084
174.10000	0.23342
174.10000	0.22327
174.08333	0.22730
174.08333	0.22939
174.08333	0.22069
174.06667	0.22665
174.01667	0.21715
173.93333	0.22166
173.85000	0.22021
173.78333	0.21570
173.73333	0.21908
173.65000	0.22907
173.58333	0.23294
173.48333	0.23084
173.38333	0.21682
173.25000	0.21972
173.18333	0.21473
173.18333	0.21199
173.16667	0.21344
173.15000	0.22552
173.15000	0.21666
173.13333	0.21682
173.13333	0.22472
173.13333	0.22826
173.13333	0.22279
173.13333	0.23374
173.13333	0.23358
173.13333	0.22681
173.13333	0.21376
173.13333	0.21409
173.11667	0.20039
173.11667	0.14964
173.11667	0.18525
173.13333	0.20716
173.13333	0.21827
173.13333	0.22488
173.11667	0.20667
173.11667	0.21409
173.13333	0.22182
173.13333	0.22005
173.13333	0.22085
173.13333	0.23181
173.13333	0.23294
173.13333	0.22907
173.13333	0.23390
173.13333	0.23052
173.13333	0.22762
173.13333	0.22375
173.13333	0.22101
173.13333	0.21811
173.13333	0.22053
173.13333	0.22037
173.13333	0.22069
173.13333	0.22585
173.13333	0.23100
173.15000	0.21634
173.15000	0.20925
173.15000	0.21070
173.15000	0.22327
173.15000	0.22246
173.13333	0.22826
173.11667	0.22778
173.06667	0.23149
172.93333	0.23229
172.80000	0.23084
172.65000	0.22826
172.53333	0.20780
172.45000	0.19346
172.38333	0.17784
172.36667	0.18267
172.36667	0.19105
172.35000	0.20281
172.35000	0.21554
172.35000	0.22875
172.35000	0.23600
172.35000	0.22359
172.35000	0.21844
172.35000	0.21328
172.35000	0.21650
172.35000	0.21537
172.35000	0.20168
172.35000	0.20522
172.35000	0.20458
172.35000	0.21264
172.36667	0.23310
172.36667	0.22714
172.36667	0.21102
172.36667	0.21618
172.36667	0.21473
172.35000	0.20667
172.35000	0.20796
172.35000	0.20893
172.35000	0.19346
172.35000	0.19105
172.35000	0.18492
172.35000	0.18202
172.35000	0.18509
172.35000	0.18380
172.35000	0.18541
172.35000	0.20410
172.35000	0.21505
172.35000	0.21715
172.35000	0.21537
172.35000	0.21972
172.35000	0.21860
172.35000	0.22343
172.33333	0.22246
172.33333	0.23342
172.33333	0.23004
172.30000	0.23503
172.26667	0.22730
172.23333	0.23116
172.20000	0.23294
172.18333	0.23712
172.16667	0.23874
172.15000	0.23906
172.13333	0.23648
172.13333	0.23890
172.11667	0.23793
172.10000	0.23616
172.08333	0.23841
172.03333	0.23922
171.95000	0.24260
171.88333	0.23890
171.81667	0.23696
171.75000	0.23761
171.70000	0.23938
171.66667	0.23551
171.66667	0.23809
171.66667	0.24147
171.66667	0.23906
171.66667	0.23712
171.65000	0.23245
171.65000	0.23294
171.65000	0.23487
171.65000	0.23374
171.65000	0.22826
171.63333	0.23616
171.63333	0.22730
171.61667	0.23036
171.61667	0.23310
171.60000	0.23181
171.58333	0.23294
171.56667	0.23326
171.56667	0.23245
171.55000	0.23519
171.55000	0.23036
171.55000	0.22794
171.53333	0.22552
171.51667	0.22810
171.45000	0.22569
171.40000	0.23326
171.35000	0.23052
171.31667	0.23503
171.28333	0.23632
171.23333	0.23294
171.21667	0.23535
171.16667	0.23294
171.10000	0.23390
171.05000	0.23535
171.00000	0.23970
170.93333	0.23584
170.81667	0.23890
170.76667	0.23874
170.71667	0.24115
170.66667	0.23954
170.63333	0.24454
170.58333	0.24147
170.55000	0.24389
170.51667	0.24566
170.50000	0.23922
170.48333	0.24035
170.46667	0.22681
170.43333	0.22794
170.41667	0.21537
170.36667	0.21151
170.33333	0.19862
170.28333	0.19685
170.23333	0.18219
170.20000	0.16962
170.16667	0.16253
170.13333	0.14884
170.11667	0.14481
170.11667	0.15399
170.10000	0.16752
170.10000	0.20522
170.08333	0.21779
170.08333	0.22021
170.06667	0.21763
170.05000	0.21650
170.03333	0.22246
170.03333	0.23004
170.03333	0.22585
170.01667	0.22198
170.01667	0.22214
170.00000	0.22134
170.00000	0.22359
170.00000	0.19749
169.98333	0.14787
169.98333	0.19701
169.98333	0.21376
169.98333	0.22230
169.98333	0.22246
169.98333	0.22714
169.98333	0.22649
169.98333	0.22053
169.98333	0.21779
169.98333	0.22198
169.96667	0.22601
169.96667	0.22391
169.96667	0.22166
169.96667	0.21554
169.95000	0.20474
169.93333	0.21167
169.90000	0.22601
169.86667	0.23068
169.85000	0.23632
169.80000	0.23809
169.75000	0.24599
169.71667	0.24325
169.68333	0.24244
169.66667	0.23906
169.65000	0.24147
169.65000	0.24067
169.65000	0.24260
169.65000	0.24196
169.65000	0.23358
169.65000	0.23632
169.63333	0.23487
169.63333	0.22955
169.61667	0.23197
169.60000	0.23696
169.58333	0.23277
169.56667	0.22665
169.55000	0.22778
169.53333	0.22504
169.51667	0.22794
169.50000	0.23809
169.48333	0.23616
169.45000	0.23406
169.43333	0.23439
169.41667	0.23745
169.41667	0.23310
169.40000	0.24035
169.35000	0.23841
169.26667	0.23406
169.20000	0.24212
169.16667	0.23841
169.15000	0.24502
169.13333	0.23938
169.13333	0.23616
169.11667	0.24486
169.11667	0.24019
169.11667	0.24341
169.10000	0.23503
169.03333	0.22826
168.88333	0.23245
168.73333	0.23100
168.61667	0.23906
168.53333	0.24872
168.50000	0.24953
168.48333	0.24856
168.48333	0.24470
168.46667	0.24164
168.46667	0.24695
168.46667	0.24309
168.46667	0.24357
168.46667	0.24969
168.46667	0.24776
168.46667	0.24889
168.46667	0.24663
168.46667	0.23664
168.46667	0.22971
168.41667	0.22327
168.40000	0.24228
168.40000	0.25275
168.40000	0.24582
168.40000	0.25130
168.40000	0.25275
168.40000	0.22375
168.40000	0.13369
168.40000	0.08826
168.40000	0.15673
168.40000	0.21779
168.40000	0.24840
168.41667	0.25307
168.41667	0.25034
168.41667	0.25372
168.41667	0.25130
168.41667	0.25275
168.41667	0.24292
168.41667	0.24147
168.41667	0.23954
168.41667	0.24969
168.40000	0.24985
168.40000	0.24937
168.40000	0.24518
168.40000	0.24776
168.40000	0.25017
168.40000	0.25146
168.40000	0.25034
168.40000	0.25211
168.40000	0.25388
168.41667	0.25791
168.41667	0.25211
168.41667	0.24582
168.41667	0.24969
168.41667	0.25324
168.41667	0.24872
168.41667	0.25243
168.41667	0.25227
168.41667	0.24937
168.41667	0.23149
168.41667	0.15157
168.41667	0.00947
168.41667	0.00593
168.41667	0.00690
168.41667	0.02204
168.41667	0.04911
168.41667	0.08890
168.40000	0.18702
168.38333	0.21747
168.33333	0.23970
168.26667	0.24180
168.21667	0.25017
168.16667	0.24679
168.11667	0.24454
168.10000	0.24921
168.05000	0.24228
168.00000	0.22585
167.93333	0.20941
167.86667	0.16930
167.73333	0.14674
167.61667	0.19105
167.51667	0.22262
167.43333	0.24099
167.35000	0.24164
167.26667	0.25340
167.21667	0.25179
167.16667	0.22971
167.15000	0.22601
167.11667	0.21441
167.08333	0.20893
167.06667	0.20120
167.05000	0.19169
167.03333	0.19975
167.01667	0.20603
167.00000	0.22488
166.98333	0.22407
166.96667	0.22875
166.96667	0.23729
166.95000	0.23229
166.93333	0.23020
166.90000	0.23036
166.83333	0.21199
166.75000	0.21296
166.68333	0.19395
166.66667	0.20039
166.63333	0.19411
166.63333	0.21344
166.63333	0.22665
166.61667	0.22424
166.61667	0.23793
166.61667	0.24212
166.61667	0.24615
166.61667	0.25082
166.61667	0.24389
166.61667	0.24196
166.61667	0.25549
166.61667	0.25581
166.61667	0.25436
166.61667	0.25179
166.60000	0.24872
166.60000	0.25034
166.60000	0.25179
166.60000	0.25066
166.60000	0.25082
166.60000	0.24599
166.60000	0.25469
166.58333	0.24953
166.58333	0.24969
166.58333	0.24889
166.58333	0.24147
166.58333	0.24518
166.58333	0.25114
166.58333	0.25436
166.58333	0.24969
166.58333	0.24905
166.58333	0.24131
166.58333	0.23890
166.58333	0.24292
166.58333	0.24582
166.58333	0.24437
166.58333	0.25179
166.58333	0.24260
166.58333	0.23664
166.58333	0.16672
166.58333	-0.00261
166.58333	0.90654
166.56667	0.00029
166.56667	0.04460
166.56667	0.06731
166.55000	0.14320
166.55000	-0.00100
166.53333	-0.00052
166.51667	0.17026
166.48333	0.18589
166.41667	0.21409
166.35000	0.24099
166.31667	0.24196
166.28333	0.25001
166.26667	0.24647
166.25000	0.24760
166.25000	0.25001
166.25000	0.24647
166.25000	0.24389
166.23333	0.24099
166.21667	0.23761
166.21667	0.24679
166.20000	0.24341
166.20000	0.24325
166.20000	0.24534
166.18333	0.24244
166.18333	0.25146
166.18333	0.24727
166.16667	0.25179
166.16667	0.25469
166.16667	0.24470
166.16667	0.25146
166.16667	0.25485
166.16667	0.25469
166.15000	0.25211
166.15000	0.24599
166.15000	0.25162
166.15000	0.24921
166.15000	0.25630
166.15000	0.25436
166.15000	0.25597
166.15000	0.24969
166.15000	0.24969
166.13333	0.25485
166.13333	0.25420
166.13333	0.25259
166.11667	0.25275
166.11667	0.25146
166.10000	0.24744
166.08333	0.24744
166.06667	0.25517
166.06667	0.25050
166.05000	0.24421
166.03333	0.24502
166.01667	0.25066
165.96667	0.25146
165.95000	0.24776
165.95000	0.24196
165.93333	0.24905
165.93333	0.24196
165.93333	0.25017
165.91667	0.24405
165.90000	0.24550
165.88333	0.24647
165.86667	0.24389
165.85000	0.24744
165.85000	0.24792
165.81667	0.23986
165.78333	0.24534
165.75000	0.25275
165.73333	0.24969
165.71667	0.25066
165.70000	0.24905
165.70000	0.24921
165.68333	0.25227
165.68333	0.24727
165.66667	0.25179
165.66667	0.24566
165.66667	0.23890
165.65000	0.24276
165.65000	0.24292
165.65000	0.24518
165.63333	0.24373
165.61667	0.24180
165.60000	0.24502
165.56667	0.24599
165.53333	0.24840
165.51667	0.24373
165.50000	0.24615
165.50000	0.25179
165.48333	0.24856
165.48333	0.25372
165.46667	0.24921
165.46667	0.25243
165.45000	0.25098
165.43333	0.24437
165.43333	0.25114
165.41667	0.25388
165.40000	0.25597
165.38333	0.25549
165.38333	0.24889
165.36667	0.25436
165.35000	0.25597
165.35000	0.25066
165.35000	0.25162
165.33333	0.25469
165.30000	0.25597
165.28333	0.25066
165.25000	0.25630
165.23333	0.25517
165.21667	0.25726
165.20000	0.25759
165.20000	0.25195
165.18333	0.25227
165.18333	0.25291
165.18333	0.25275
165.16667	0.25162
165.16667	0.24889
165.16667	0.25001
165.16667	0.24615
165.16667	0.25050
165.16667	0.25114
165.15000	0.24582
165.15000	0.24566
165.15000	0.24534
165.15000	0.24164
165.15000	0.23857
165.15000	0.21924
165.15000	0.22923
165.15000	0.24099
165.15000	0.23471
165.15000	0.23793
165.15000	0.22714
165.15000	0.23326
165.15000	0.23761
165.15000	0.24083
165.15000	0.25436
165.15000	0.22649
165.15000	0.25098
165.15000	0.25404
165.15000	0.23503
165.15000	0.23277
165.15000	0.22746
165.15000	0.19105
165.15000	0.15947
165.15000	0.08777
165.16667	-0.00019
165.16667	0.94569
165.18333	0.00110
165.18333	-0.00084
165.18333	-0.00084
165.18333	0.15689
165.18333	0.24872
165.18333	0.24985
165.18333	0.24228
165.16667	0.25243
165.16667	0.24228
165.16667	0.22826
165.16667	0.24309
165.16667	0.23696
165.16667	0.26000
165.16667	0.26210
165.15000	0.26629
165.15000	0.26081
165.08333	0.25501
165.00000	0.26242
164.96667	0.25275
164.93333	0.25871
164.91667	0.25936
164.88333	0.25952
164.85000	0.26097
164.81667	0.25726
164.78333	0.26226
164.76667	0.25452
164.75000	0.25211
164.75000	0.25726
164.75000	0.26129
164.73333	0.26467
164.71667	0.26065
164.70000	0.25807
164.66667	0.25952
164.61667	0.26741
164.56667	0.26145
164.53333	0.25791
164.51667	0.25678
164.50000	0.25968
164.50000	0.25904
164.50000	0.26016
164.48333	0.26113
164.48333	0.25517
164.48333	0.25420
164.46667	0.24276
164.46667	0.24760
164.45000	0.25291
164.43333	0.25259
164.38333	0.26000
164.31667	0.25710
164.26667	0.25823
164.21667	0.25742
164.18333	0.25646
164.16667	0.25662
164.15000	0.25485
164.15000	0.25436
164.13333	0.24937
164.13333	0.25614
164.11667	0.25742
164.10000	0.25436
164.10000	0.25307
164.08333	0.25501
164.08333	0.25678
164.08333	0.24953
164.08333	0.24921
164.08333	0.25533
164.08333	0.25565
164.06667	0.25759
164.05000	0.25597
164.05000	0.25694
164.03333	0.24744
164.01667	0.24115
164.01667	0.23310
164.01667	0.24357
163.98333	0.25307
163.95000	0.25307
163.90000	0.26113
163.86667	0.26016
163.83333	0.26467
163.80000	0.25742
163.76667	0.26580
163.75000	0.25871
163.73333	0.25855
163.73333	0.26677
163.71667	0.26741
163.71667	0.25968
163.70000	0.25823
163.70000	0.26467
163.68333	0.26274
163.66667	0.25904
163.66667	0.26629
163.65000	0.26451
163.65000	0.26371
163.58333	0.25968
163.53333	0.25904
163.48333	0.25469
163.48333	0.27160
163.48333	0.26854
163.48333	0.26419
163.46667	0.26741
163.45000	0.26403
163.43333	0.26355
163.41667	0.25904
163.40000	0.26322
163.38333	0.26322
163.36667	0.25726
163.33333	0.26709
163.30000	0.26129
163.28333	0.26693
163.26667	0.25936
163.26667	0.26467
163.25000	0.26806
163.21667	0.26677
163.16667	0.26548
163.11667	0.26484
163.10000	0.26677
163.08333	0.26322
163.08333	0.25742
163.06667	0.26564
163.03333	0.26919
163.01667	0.27209
163.00000	0.26902
162.98333	0.26629
162.98333	0.26355
162.96667	0.26870
162.95000	0.26516
162.91667	0.26548
162.88333	0.26838
162.83333	0.26854
162.78333	0.26516
162.76667	0.26902
162.76667	0.26886
162.75000	0.25759
162.73333	0.25759
162.73333	0.25549
162.71667	0.26580
162.71667	0.26580
162.70000	0.27289
162.70000	0.27144
162.68333	0.26806
162.65000	0.26435
162.60000	0.26161
162.56667	0.25839
162.50000	0.24856
162.48333	0.24856
162.48333	0.23906
162.46667	0.24228
162.46667	0.24002
162.46667	0.24454
162.46667	0.24260
162.46667	0.23938
162.46667	0.23712
162.46667	0.23696
162.46667	0.23680
162.46667	0.23664
162.46667	0.24083
162.46667	0.23503
162.46667	0.24067
162.46667	0.24325
162.46667	0.23503
162.46667	0.23181
162.46667	0.22842
162.46667	0.25936
162.46667	0.25501
162.46667	0.26032
162.46667	0.25968
162.46667	0.25646
162.46667	0.26387
162.46667	0.26258
162.46667	0.26983
162.46667	0.26919
162.46667	0.26741
162.46667	0.27289
162.46667	0.26629
162.46667	0.16785
162.46667	0.14255
162.46667	0.15915
162.46667	0.15802
162.46667	0.20522
162.46667	0.22424
162.46667	0.22762
162.46667	0.23793
162.48333	0.25678
162.48333	0.27112
162.48333	0.15657
162.48333	0.24260
162.48333	0.26870
162.48333	0.26645
162.48333	0.26741
162.48333	0.27724
162.46667	0.27531
162.46667	0.27031
162.46667	0.27064
162.46667	0.26032
162.46667	0.26693
162.46667	0.26065
162.46667	0.25936
162.46667	0.26339
162.46667	0.25952
162.46667	0.26387
162.45000	0.26113
162.45000	0.25533
162.45000	0.24985
162.43333	0.21537
162.43333	0.19733
162.43333	0.19362
162.41667	0.13997
162.40000	0.16172
162.36667	0.16881
162.30000	0.20442
162.23333	0.22150
162.18333	0.22617
162.16667	0.23261
162.15000	0.21119
162.13333	0.21666
162.11667	0.19427
162.11667	0.19298
162.10000	0.16479
162.08333	0.13031
162.05000	0.15431
162.00000	0.18525
161.93333	0.21747
161.80000	0.24502
161.61667	0.26226
161.46667	0.27144
161.36667	0.26274
161.31667	0.25887
161.30000	0.26339
161.30000	0.26242
161.30000	0.27482
161.30000	0.26757
161.28333	0.27466
161.28333	0.27128
161.28333	0.27080
161.28333	0.27015
161.28333	0.26516
161.28333	0.27047
161.28333	0.26951
161.28333	0.26532
161.26667	0.26290
161.26667	0.26886
161.26667	0.27096
161.26667	0.27031
161.26667	0.27273
161.25000	0.26693
161.25000	0.27515
161.25000	0.27482
161.25000	0.26870
161.25000	0.27192
161.25000	0.27080
161.25000	0.26629
161.25000	0.26806
161.25000	0.26806
161.25000	0.27563
161.25000	0.27305
161.23333	0.26709
161.18333	0.25871
161.10000	0.25356
161.06667	0.25146
161.03333	0.24357
161.00000	0.24454
160.95000	0.25017
160.90000	0.24711
160.86667	0.25920
160.85000	0.25984
160.83333	0.26580
160.81667	0.25710
160.80000	0.26532
160.78333	0.26081
160.78333	0.26516
160.76667	0.26645
160.73333	0.26516
160.68333	0.27225
160.60000	0.27466
160.56667	0.27144
160.56667	0.27176
160.55000	0.27579
160.53333	0.27064
160.50000	0.27064
160.43333	0.26339
160.38333	0.27080
160.33333	0.26339
160.30000	0.26709
160.26667	0.26629
160.21667	0.25759
160.18333	0.25307
160.16667	0.25565
160.15000	0.25452
160.15000	0.26419
160.13333	0.27515
160.11667	0.27434
160.10000	0.27499
160.08333	0.27692
160.05000	0.27144
160.00000	0.26935
159.93333	0.25791
159.83333	0.24905
159.75000	0.23954
159.68333	0.22617
159.63333	0.21795
159.60000	0.21360
159.56667	0.22520
159.56667	0.23874
159.55000	0.26564
159.53333	0.27015
159.51667	0.27047
159.50000	0.26564
159.48333	0.25839
159.46667	0.25340
159.46667	0.25114
159.45000	0.24921
159.43333	0.25162
159.41667	0.24679
159.40000	0.24937
159.36667	0.24341
159.33333	0.23229
159.31667	0.23503
159.31667	0.24083
159.30000	0.23906
159.30000	0.24824
159.30000	0.25372
159.30000	0.27080
159.30000	0.27160
159.30000	0.26967
159.30000	0.22375
159.30000	0.05684
159.28333	0.12112
159.26667	0.13208
159.26667	0.14078
159.26667	0.00690
159.28333	0.04492
159.28333	0.26854
159.28333	0.27853
159.28333	0.28385
159.28333	0.27966
159.28333	0.27837
159.28333	0.28465
159.28333	0.28256
159.28333	0.27337
159.28333	0.26403
159.28333	0.26145
159.28333	0.26145
159.28333	0.26725
159.28333	0.27080
159.25000	0.27321
159.20000	0.26467
159.08333	0.27644
159.01667	0.27805
158.96667	0.27241
158.93333	0.27579
158.91667	0.27482
158.90000	0.27273
158.90000	0.27047
158.88333	0.27515
158.88333	0.27015
158.86667	0.27289
158.85000	0.27273
158.85000	0.27450
158.83333	0.27869
158.83333	0.27692
158.81667	0.28046
158.81667	0.27482
158.81667	0.27772
158.81667	0.27853
158.81667	0.28111
158.81667	0.28030
158.81667	0.27821
158.81667	0.27950
158.81667	0.27337
158.81667	0.27321
158.81667	0.26500
158.81667	0.25275
158.81667	0.25098
158.81667	0.24856
158.81667	0.24824
158.81667	0.26258
158.81667	0.25597
158.80000	0.27482
158.76667	0.27708
158.66667	0.27547
158.60000	0.27080
158.58333	0.27531
158.56667	0.27289
158.55000	0.27692
158.50000	0.27354
158.45000	0.27853
158.40000	0.27950
158.36667	0.27563
158.35000	0.27966
158.33333	0.27450
158.33333	0.28207
158.31667	0.27756
158.28333	0.26806
158.25000	0.27917
158.23333	0.27144
158.20000	0.27144
158.15000	0.27901
158.10000	0.27064
158.06667	0.26467
158.01667	0.25630
158.00000	0.26886
157.98333	0.27805
157.96667	0.28143
157.95000	0.28304
157.93333	0.27917
157.90000	0.28465
157.85000	0.28304
157.83333	0.28224
157.80000	0.28288
157.75000	0.28030
157.68333	0.27418
157.60000	0.27724
157.55000	0.27998
157.50000	0.27611
157.45000	0.27096
157.41667	0.27676
157.36667	0.28062
157.33333	0.27724
157.30000	0.27644
157.28333	0.26741
157.26667	0.27128
157.25000	0.27579
157.21667	0.27708
157.18333	0.27547
157.16667	0.27434
157.16667	0.27418
157.16667	0.26564
157.16667	0.24260
157.16667	0.25034
157.16667	0.24792
157.16667	0.26210
157.16667	0.28046
157.16667	0.28401
157.16667	0.28739
157.16667	0.29094
157.16667	0.28981
157.16667	0.29126
157.16667	0.29448
157.16667	0.29174
157.18333	0.28014
157.18333	0.22633
157.18333	0.20039
157.18333	0.18057
157.18333	0.17896
157.18333	0.19959
157.18333	0.22762
157.18333	0.25678
157.18333	0.28288
157.18333	0.29077
157.18333	0.28514
157.18333	0.28932
157.16667	0.27660
157.16667	0.27209
157.16667	0.23245
157.16667	0.15560
157.16667	0.05765
157.16667	0.03138
157.16667	-0.00245
157.16667	0.60011
157.16667	0.09905
157.16667	-0.00100
157.16667	-0.00116
157.16667	0.18170
157.16667	0.21747
157.18333	0.24905
157.18333	0.25469
157.18333	0.24373
157.18333	0.22504
157.18333	0.24663
157.18333	0.25372
157.18333	0.27337
157.16667	0.26870
157.16667	0.26564
157.16667	0.25581
157.16667	0.23567
157.16667	0.20571
157.16667	0.17977
157.16667	0.09470
157.16667	0.07505
157.15000	0.03799
157.15000	0.02043
157.13333	0.01624
157.11667	0.02768
157.08333	0.06393
157.03333	0.17993
156.98333	0.21521
156.90000	0.24727
156.75000	0.26886
156.58333	0.27128
156.53333	0.27176
156.53333	0.26886
156.53333	0.26629
156.51667	0.26838
156.48333	0.26500
156.43333	0.26757
156.38333	0.27241
156.35000	0.27901
156.33333	0.27080
156.33333	0.28062
156.33333	0.26806
156.33333	0.26790
156.33333	0.26935
156.33333	0.27740
156.33333	0.28143
156.31667	0.27595
156.31667	0.27354
156.31667	0.28336
156.31667	0.28514
156.31667	0.27692
156.31667	0.28626
156.31667	0.27982
156.31667	0.28304
156.31667	0.28095
156.31667	0.27644
156.31667	0.27998
156.31667	0.28143
156.31667	0.28610
156.31667	0.27724
156.31667	0.24196
156.33333	0.06441
156.33333	0.00287
156.31667	0.12418
156.31667	0.28143
156.31667	0.27869
156.31667	0.27080
156.31667	0.27934
156.33333	0.28691
156.33333	0.29609
156.33333	0.29335
156.33333	0.27885
156.33333	0.26629
156.33333	0.26242
156.33333	0.29174
156.35000	0.28900
156.35000	0.28820
156.35000	0.29303
156.35000	0.29206
156.36667	0.28932
156.36667	0.29110
156.36667	0.28884
156.36667	0.28626
156.36667	0.27644
156.35000	0.27209
156.35000	0.26983
156.35000	0.29367
156.33333	0.27772
156.30000	0.26999
156.20000	0.26596
156.11667	0.26306
156.03333	0.26774
155.93333	0.25710
155.85000	0.25726
155.73333	0.27112
155.63333	0.27998
155.56667	0.28207
155.48333	0.28916
155.40000	0.27096
155.28333	0.22842
155.20000	0.23068
154.98333	0.22907
154.68333	0.17977
154.40000	0.20281
154.18333	0.16946
154.06667	0.15496
153.96667	0.17139
153.85000	0.17107
153.78333	0.24196
153.75000	0.28207
153.75000	0.28449
153.75000	0.28530
153.75000	0.27805
153.75000	0.27998
153.75000	0.27821
153.75000	0.28610
153.75000	0.28240
153.75000	0.28336
153.75000	0.28175
153.75000	0.29545
153.75000	0.29206
153.76667	0.28642
153.78333	0.29142
153.80000	0.28578
153.81667	0.28336
153.83333	0.28626
153.85000	0.28965
153.86667	0.28707
153.91667	0.29367
153.95000	0.28932
154.01667	0.29464
154.08333	0.28820
154.16667	0.28932
154.21667	0.28224
154.28333	0.27966
154.41667	0.27064
154.58333	0.26177
154.65000	0.26822
154.73333	0.27499
154.83333	0.26774
154.91667	0.26999
155.00000	0.26532
155.10000	0.26645
155.20000	0.26757
155.38333	0.25887
155.55000	0.25597
155.68333	0.21312
155.71667	0.23181
155.71667	0.26854
155.71667	0.28417
155.71667	0.26032
155.71667	0.27563
155.71667	0.28191
155.71667	0.26790
155.71667	0.19556
155.71667	0.07327
155.71667	0.03203
155.71667	0.21972
155.71667	0.27579
155.71667	0.27740
155.71667	0.26194
155.71667	0.26387
155.71667	0.27982
155.71667	0.27209
155.71667	0.27579
155.71667	0.28288
155.71667	0.28191
155.71667	0.27515
155.71667	0.28191
155.71667	0.28207
155.71667	0.28127
155.71667	0.28642
155.71667	0.28465
155.71667	0.28755
155.71667	0.28852
155.71667	0.27450
155.71667	0.28401
155.71667	0.28546
155.71667	0.28143
155.70000	0.27869
155.71667	0.28659
155.71667	0.28481
155.71667	0.28369
155.71667	0.28916
155.71667	0.29013
155.71667	0.28320
155.71667	0.29029
155.71667	0.29110
155.71667	0.28610
155.71667	0.28868
155.71667	0.28642
155.71667	0.28546
155.71667	0.27692
155.71667	0.28191
155.71667	0.28610
155.71667	0.28836
155.73333	0.28320
155.73333	0.28369
155.73333	0.28481
155.75000	0.28546
155.76667	0.27805
155.76667	0.28497
155.78333	0.28433
155.80000	0.28514
155.81667	0.28224
155.83333	0.28127
155.85000	0.27740
155.86667	0.28514
155.88333	0.25646
155.90000	0.25630
155.93333	0.25050
155.95000	0.24421
155.96667	0.23245
155.98333	0.21876
155.98333	0.20957
156.00000	0.18428
156.00000	0.15351
156.00000	0.15834
156.00000	0.15625
156.01667	0.14046
156.01667	0.14448
156.01667	0.14094
156.03333	0.15109
156.03333	0.16640
156.03333	0.19701
156.03333	0.20184
156.05000	0.19685
156.05000	0.18654
156.05000	0.18428
156.05000	0.18299
156.05000	0.20845
156.05000	0.20893
156.05000	0.21860
156.05000	0.24566
156.05000	0.26097
156.05000	0.26822
156.05000	0.27402
156.05000	0.27644
156.05000	0.26935
156.05000	0.27080
156.05000	0.27305
156.05000	0.27627
156.05000	0.26919
156.05000	0.27176
156.05000	0.27305
156.05000	0.27998
156.05000	0.27885
156.05000	0.28288
156.05000	0.27708
156.05000	0.27934
156.05000	0.27901
156.05000	0.27885
156.05000	0.28240
156.05000	0.27869
156.05000	0.27934
156.05000	0.28062
156.05000	0.26870
156.05000	0.26983
156.05000	0.27337
156.05000	0.27595
156.05000	0.27950
156.05000	0.27627
156.05000	0.27547
156.05000	0.27047
156.03333	0.27289
156.03333	0.26532
156.03333	0.26548
156.03333	0.26854
156.03333	0.27128
156.03333	0.27402
156.03333	0.27950
156.03333	0.28111
156.01667	0.28562
156.01667	0.28079
156.01667	0.28127
156.00000	0.28127
155.98333	0.27772
155.95000	0.26967
155.91667	0.26258
155.86667	0.26500
155.81667	0.25920
155.78333	0.25597
155.73333	0.24792
155.66667	0.24180
155.60000	0.23986
155.55000	0.23422
155.50000	0.22794
155.43333	0.20329
155.33333	0.18057
155.28333	0.15705
155.20000	0.13611
155.13333	0.12741
155.08333	0.11613
155.03333	0.09986
155.00000	0.08761
154.95000	0.07585
154.93333	0.05813
154.88333	0.03267
154.85000	0.01882
154.81667	0.01415
154.76667	0.00158
154.73333	0.00673
154.70000	0.00093
154.68333	0.00174
154.66667	0.00174
154.65000	-0.00325
154.65000	-0.00309
154.65000	-0.00019
154.65000	0.00222
154.65000	0.00271
154.65000	0.00174
154.65000	0.01221
154.66667	0.01624
154.66667	0.04363
154.66667	0.05394
154.66667	0.10388
154.66667	0.12789
154.66667	0.16221
154.66667	0.21779
154.68333	0.24599
154.68333	0.26629
154.68333	0.28127
154.68333	0.28546
154.68333	0.28530
154.70000	0.28030
154.70000	0.28159
154.71667	0.27595
154.73333	0.27192
154.76667	0.26194
154.81667	0.27241
154.90000	0.27192
154.98333	0.27772
155.05000	0.27611
155.13333	0.27015
155.18333	0.27144
155.25000	0.27031
155.31667	0.26886
155.35000	0.27370
155.38333	0.27402
155.38333	0.27257
155.40000	0.27547
155.40000	0.27950
155.40000	0.28659
155.40000	0.26838
155.40000	0.27257
155.40000	0.27692
155.40000	0.27289
155.40000	0.27579
155.40000	0.26403
155.40000	0.25678
155.40000	0.24550
155.41667	0.18589
155.41667	0.18186
155.41667	0.15834
155.41667	0.19137
155.40000	0.21811
155.40000	0.20087
155.40000	0.18637
155.40000	0.19524
155.40000	0.19733
155.40000	0.21795
155.40000	0.23729
155.40000	0.22214
155.38333	0.23986
155.38333	0.26774
155.38333	0.26322
155.38333	0.25130
155.38333	0.17171
155.38333	0.07102
155.38333	0.05217
155.38333	0.06119
155.38333	0.14916
155.38333	0.26403
155.38333	0.28079
155.38333	0.20957
155.38333	0.12531
155.35000	0.04137
155.31667	0.02381
155.26667	0.23874
155.26667	0.27917
155.26667	0.28449
155.26667	0.28771
155.26667	0.28191
155.26667	0.28949
155.26667	0.28304
155.25000	0.25324
155.25000	0.14884
155.25000	0.18911
155.25000	0.23712
155.23333	0.26403
155.20000	0.27917
155.13333	0.14561
155.10000	0.03090
155.10000	0.03557
155.10000	0.00690
155.08333	-0.00068
155.08333	0.00061
155.08333	0.01076
155.08333	-0.00035
155.08333	-0.00052
155.08333	-0.00068
155.08333	0.00319
155.08333	0.03445
155.08333	0.08584
155.08333	0.12306
155.08333	0.17204
155.08333	0.22295
155.08333	0.25082
155.08333	0.27031
155.08333	0.27386
155.08333	0.28143
155.08333	0.27354
155.08333	0.27241
155.08333	0.27772
155.08333	0.27692
155.08333	0.27853
155.06667	0.27740
155.03333	0.28224
154.98333	0.27853
154.90000	0.27209
154.81667	0.24872
154.80000	0.24776
154.78333	0.24518
154.78333	0.24212
154.78333	0.24647
154.76667	0.24679
154.76667	0.24276
154.75000	0.25179
154.73333	0.27225
154.70000	0.26194
154.65000	0.25469
154.60000	0.25114
154.55000	0.25469
154.46667	0.25243
154.38333	0.25871
154.18333	0.26274
154.00000	0.26081
153.93333	0.26677
153.85000	0.26629
153.80000	0.25984
153.78333	0.26629
153.76667	0.27015
153.76667	0.26049
153.75000	0.26387
153.75000	0.25759
153.75000	0.26210
153.75000	0.25936
153.73333	0.25533
153.71667	0.24792
153.68333	0.24083
153.65000	0.24470
153.63333	0.22617
153.63333	0.22601
153.63333	0.21215
153.61667	0.22150
153.58333	0.22859
153.56667	0.22552
153.55000	0.24727
153.53333	0.25501
153.51667	0.26951
153.51667	0.27676
153.51667	0.27676
153.51667	0.27499
153.51667	0.27901
153.51667	0.28884
153.51667	0.29496
153.51667	0.29770
153.51667	0.29851
153.51667	0.29561
153.51667	0.29239
153.51667	0.28675
153.51667	0.27386
153.51667	0.27869
153.51667	0.30286
153.51667	0.30060
153.51667	0.29625
153.51667	0.29077
153.51667	0.29690
153.51667	0.29931
153.51667	0.30560
153.51667	0.29738
153.51667	0.29480
153.51667	0.29094
153.51667	0.28852
153.51667	0.27192
153.51667	0.27192
153.51667	0.26725
153.51667	0.26661
153.51667	0.25630
153.51667	0.24502
153.51667	0.23825
153.51667	0.20909
153.51667	0.21038
153.51667	0.21151
153.51667	0.21715
153.51667	0.22069
153.51667	0.22327
153.51667	0.24856
153.51667	0.27531
153.50000	0.28626
153.50000	0.29351
153.50000	0.28594
153.50000	0.28546
153.48333	0.28191
153.48333	0.29077
153.45000	0.28642
153.43333	0.28884
153.38333	0.29126
153.31667	0.28981
153.23333	0.27241
153.18333	0.26161
153.16667	0.26725
153.16667	0.25436
153.15000	0.26339
153.15000	0.25887
153.15000	0.26129
153.15000	0.26467
153.13333	0.25839
153.13333	0.26645
153.11667	0.27273
153.05000	0.27305
152.93333	0.26774
152.90000	0.26081
152.88333	0.25614
152.88333	0.25887
152.88333	0.26629
152.86667	0.25871
152.86667	0.25388
152.86667	0.26016
152.86667	0.25936
152.85000	0.26016
152.85000	0.25275
152.85000	0.24760
152.83333	0.25050
152.83333	0.25211
152.81667	0.25227
152.80000	0.24115
152.78333	0.24019
152.75000	0.23874
152.73333	0.23004
152.71667	0.21328
152.70000	0.21473
152.70000	0.22939
152.68333	0.24035
152.68333	0.25066
152.68333	0.25517
152.68333	0.26951
152.68333	0.27950
152.68333	0.28739
152.68333	0.28771
152.68333	0.29271
152.68333	0.29239
152.68333	0.29367
152.66667	0.29367
152.66667	0.29013
152.65000	0.29480
152.65000	0.29029
152.63333	0.28852
152.61667	0.28175
152.50000	0.28949
152.38333	0.28626
152.33333	0.29029
152.33333	0.28836
152.31667	0.29287
152.31667	0.28417
152.30000	0.29255
152.30000	0.28771
152.28333	0.29045
152.28333	0.28723
152.26667	0.28610
152.25000	0.28900
152.23333	0.28594
152.20000	0.29126
152.16667	0.28900
152.13333	0.28691
152.11667	0.28417
152.08333	0.28240
152.06667	0.28159
152.05000	0.27837
152.01667	0.26935
152.00000	0.26032
151.96667	0.26403
151.96667	0.25066
151.95000	0.25227
151.95000	0.24760
151.95000	0.25517
151.95000	0.26403
151.95000	0.26242
151.95000	0.26564
151.95000	0.22424
151.95000	0.19604
151.96667	0.22391
151.96667	0.25871
151.96667	0.28240
151.96667	0.30318
151.96667	0.29690
151.96667	0.29738
151.96667	0.30237
151.96667	0.30076
151.96667	0.30366
151.96667	0.30109
151.96667	0.29964
151.96667	0.29851
151.96667	0.29061
151.96667	0.29158
151.96667	0.29029
151.96667	0.29674
151.96667	0.29061
151.96667	0.28642
151.96667	0.29271
151.95000	0.29400
151.95000	0.28852
151.95000	0.29802
151.95000	0.29641
151.95000	0.29947
151.95000	0.28610
151.95000	0.26419
151.95000	0.26403
151.95000	0.26145
151.88333	0.27466
151.81667	0.27934
151.75000	0.29319
151.68333	0.29190
151.63333	0.28949
151.60000	0.28497
151.55000	0.28143
151.51667	0.27708
151.48333	0.28207
151.46667	0.28594
151.45000	0.27950
151.41667	0.27434
151.40000	0.26935
151.38333	0.25984
151.36667	0.25581
151.35000	0.25823
151.33333	0.24615
151.31667	0.23181
151.28333	0.22214
151.25000	0.18879
151.21667	0.19540
151.20000	0.18299
151.16667	0.19717
151.13333	0.18944
151.08333	0.15689
151.03333	0.15592
151.00000	0.14577
150.96667	0.15576
150.93333	0.17042
150.91667	0.18492
150.91667	0.19056
150.90000	0.20506
150.90000	0.20925
150.90000	0.20265
150.90000	0.17010
150.90000	0.13901
150.90000	0.20587
150.90000	0.26983
150.90000	0.28143
150.90000	0.28562
150.88333	0.28336
150.86667	0.27611
150.86667	0.27434
150.85000	0.25243
150.86667	0.26677
150.86667	0.27740
150.86667	0.29222
150.86667	0.30801
150.86667	0.29931
150.86667	0.31414
150.86667	0.19475
150.86667	0.19137
150.86667	0.18090
150.86667	0.20055
150.86667	0.23036
150.86667	0.22440
150.86667	0.12596
150.86667	0.10131
150.86667	0.20845
150.86667	0.29464
150.86667	0.29851
150.88333	0.28143
150.88333	0.29512
150.88333	0.30076
150.88333	0.28369
150.88333	0.25759
150.88333	0.24470
150.88333	0.22875
150.88333	0.21119
150.86667	0.21892
150.86667	0.23551
150.86667	0.26161
150.86667	0.28175
150.86667	0.29222
150.86667	0.27901
150.86667	0.26886
150.86667	0.25452
150.85000	0.26065
150.83333	0.26532
150.80000	0.27047
150.75000	0.27708
150.68333	0.27225
150.61667	0.28401
150.55000	0.28143
150.48333	0.29013
150.35000	0.29142
150.28333	0.28771
150.25000	0.29061
150.23333	0.28175
150.15000	0.26596
150.03333	0.24566
149.96667	0.25694
149.86667	0.24518
149.81667	0.26951
149.76667	0.27821
149.70000	0.26435
149.61667	0.25710
149.56667	0.25420
149.51667	0.24212
149.45000	0.23342
149.41667	0.23100
149.40000	0.24615
149.36667	0.26065
149.30000	0.25195
149.20000	0.22826
149.05000	0.21634
148.95000	0.19524
148.88333	0.19234
148.81667	0.19362
148.78333	0.19217
148.76667	0.19991
148.73333	0.16495
148.71667	0.11146
148.68333	0.08826
148.63333	0.06248
148.61667	0.10614
148.61667	0.20829
148.61667	0.25662
148.61667	0.26790
148.61667	0.27305
148.63333	0.27466
148.63333	0.28014
148.63333	0.27821
148.63333	0.27837
148.63333	0.27805
148.63333	0.28352
148.65000	0.28723
148.65000	0.29126
148.66667	0.29593
148.66667	0.29255
148.68333	0.29625
148.70000	0.28771
148.71667	0.28771
148.73333	0.28481
148.75000	0.28820
148.76667	0.28900
148.76667	0.28675
148.78333	0.28659
148.80000	0.28965
148.83333	0.29126
148.86667	0.28530
148.90000	0.28369
148.91667	0.27837
148.95000	0.28224
148.96667	0.28111
148.98333	0.28497
149.00000	0.27386
149.05000	0.27821
149.06667	0.27531
149.10000	0.26548
149.16667	0.26516
149.21667	0.25501
149.26667	0.24905
149.31667	0.27047
149.36667	0.27627
149.40000	0.26967
149.43333	0.27885
149.51667	0.27499
149.60000	0.26951
149.63333	0.28659
149.65000	0.29400
149.68333	0.28771
149.71667	0.29126
149.75000	0.28626
149.78333	0.28514
149.81667	0.28642
149.86667	0.28659
149.88333	0.29110
149.90000	0.29174
149.90000	0.29045
149.90000	0.28691
149.91667	0.29319
149.96667	0.29384
150.00000	0.29077
150.03333	0.29110
150.05000	0.29367
150.06667	0.29512
150.08333	0.29303
150.08333	0.28691
150.08333	0.28320
150.08333	0.29690
150.08333	0.29641
150.08333	0.29625
150.08333	0.29512
150.08333	0.29142
150.08333	0.29367
150.08333	0.29303
150.08333	0.29609
150.08333	0.29351
150.08333	0.28691
150.08333	0.29657
150.08333	0.28626
150.08333	0.29400
150.06667	0.28852
150.06667	0.29287
150.05000	0.29158
150.05000	0.29480
150.03333	0.29319
150.01667	0.29110
150.00000	0.28804
149.96667	0.29110
149.93333	0.29287
149.90000	0.29319
149.85000	0.28836
149.80000	0.29077
149.76667	0.28514
149.75000	0.28884
149.75000	0.28465
149.73333	0.28143
149.68333	0.28095
149.60000	0.26339
149.48333	0.22955
149.40000	0.21940
149.31667	0.19475
149.28333	0.17606
149.26667	0.14948
149.25000	0.16108
149.21667	0.20667
149.16667	0.22681
149.11667	0.24663
149.08333	0.26145
149.05000	0.26161
149.03333	0.26645
149.03333	0.27515
149.03333	0.27724
149.03333	0.27305
149.03333	0.27837
149.03333	0.27660
149.03333	0.27950
149.03333	0.27917
149.03333	0.27531
149.03333	0.25179
149.03333	0.26403
149.05000	0.07617
149.05000	-0.00454
149.05000	0.11565
149.05000	0.19556
149.05000	-0.00068
149.05000	-0.00100
149.05000	0.09293
149.05000	0.28481
149.05000	0.29110
149.05000	0.30560
149.05000	0.26886
149.05000	0.27515
149.05000	0.31768
149.05000	0.29255
149.05000	-0.00277
149.05000	-0.00390
149.05000	-0.00052
149.05000	0.76154
149.05000	-0.00197
149.05000	0.75977
149.05000	-0.00277
149.05000	0.65650
149.06667	-0.00052
149.06667	0.16994
149.06667	-0.00245
149.06667	0.12660
149.05000	0.25887
149.05000	-0.00068
149.05000	-0.00068
149.05000	0.18670
149.05000	0.30431
149.05000	0.29754
149.05000	0.30205
149.05000	0.30350
149.05000	0.30318
149.05000	0.30898
149.03333	0.30447
149.00000	0.29609
148.95000	0.29013
148.86667	0.28240
148.85000	0.28336
148.83333	0.29529
148.81667	0.29851
148.76667	0.26274
148.68333	0.09470
148.53333	0.04025
148.38333	0.15705
148.25000	0.26000
148.16667	0.27901
148.10000	0.29335
148.00000	0.29448
147.91667	0.30801
147.88333	0.30962
147.83333	0.30753
147.78333	0.26725
147.76667	0.28723
147.75000	0.27241
147.75000	0.27402
147.75000	0.29883
147.75000	0.29303
147.75000	0.30511
147.73333	0.30930
147.73333	0.30850
147.71667	0.30898
147.70000	0.30399
147.68333	0.31043
147.68333	0.31397
147.65000	0.30495
147.58333	0.28965
147.50000	0.26500
147.43333	0.25517
147.36667	0.23761
147.31667	0.22407
147.26667	0.21924
147.21667	0.22198
147.18333	0.20104
147.13333	0.21038
147.10000	0.22085
147.08333	0.22037
147.06667	0.23745
147.05000	0.27112
147.03333	0.28981
147.03333	0.30044
147.03333	0.30012
147.03333	0.29867
147.01667	0.29964
147.01667	0.30850
147.01667	0.30560
147.01667	0.26967
147.00000	0.24502
147.00000	0.27466
147.00000	0.27547
147.00000	0.29802
147.00000	0.31156
147.01667	0.29931
147.01667	0.28723
147.01667	0.28659
147.01667	0.28272
147.01667	0.30544
147.01667	0.30382
147.01667	0.30012
147.01667	0.30302
147.01667	0.29947
147.00000	0.30672
147.00000	0.30318
147.00000	0.30334
147.00000	0.29706
147.00000	0.29239
147.00000	0.29335
146.98333	0.30060
146.98333	0.30173
146.98333	0.30205
146.98333	0.30350
146.98333	0.30527
146.96667	0.30350
146.96667	0.29319
146.95000	0.30141
146.93333	0.29980
146.88333	0.30334
146.81667	0.30318
146.75000	0.30753
146.70000	0.30366
146.63333	0.30431
146.56667	0.30447
146.50000	0.30592
146.41667	0.31269
146.30000	0.32122
146.23333	0.32219
146.21667	0.31913
146.21667	0.30882
146.20000	0.31236
146.20000	0.30962
146.20000	0.20265
146.20000	0.03702
146.20000	0.00142
146.20000	0.00142
146.18333	0.00013
146.18333	0.04621
146.18333	0.25936
146.18333	0.29351
146.18333	0.31559
146.18333	0.34217
146.18333	0.31687
146.18333	0.31784
146.18333	0.32493
146.18333	0.33556
146.18333	0.33250
146.18333	0.33266
146.18333	0.32864
146.18333	0.32847
146.18333	0.32139
146.18333	0.33025
146.16667	0.32574
146.15000	0.32896
146.08333	0.33218
146.01667	0.33057
145.93333	0.33073
145.83333	0.30511
145.75000	0.28224
145.71667	0.27080
145.68333	0.27337
145.65000	0.28626
145.60000	0.29964
145.53333	0.31107
145.46667	0.32702
145.40000	0.32606
145.38333	0.32702
145.38333	0.32493
145.38333	0.31559
145.38333	0.32010
145.36667	0.31510
145.35000	0.32525
145.33333	0.32332
145.30000	0.32251
145.28333	0.32525
145.26667	0.32702
145.21667	0.31816
145.15000	0.30382
145.11667	0.30834
145.08333	0.30705
145.08333	0.31784
145.08333	0.31816
145.08333	0.32445
145.08333	0.31704
145.08333	0.32042
145.08333	0.31478
145.08333	0.28868
145.08333	0.27611
145.08333	0.28481
145.08333	0.29980
145.08333	0.30979
145.08333	0.32026
145.08333	0.29593
145.08333	0.28675
145.08333	0.29174
145.08333	0.29899
145.08333	0.31140
145.08333	0.30817
145.08333	0.31752
145.08333	0.31494
145.10000	0.30898
145.10000	0.30318
145.10000	0.31027
145.10000	0.29819
145.10000	0.30495
145.10000	0.31236
145.10000	0.31317
145.10000	0.30914
145.10000	0.30205
145.10000	0.30930
145.10000	0.31269
145.10000	0.31252
145.08333	0.31671
145.08333	0.31881
145.08333	0.31704
145.06667	0.31333
145.06667	0.31623
145.06667	0.31945
145.06667	0.31687
145.05000	0.31091
145.05000	0.31446
145.05000	0.31526
145.03333	0.30753
145.03333	0.31526
145.00000	0.31365
144.96667	0.31575
144.90000	0.30834
144.80000	0.31462
144.73333	0.31591
144.66667	0.31542
144.63333	0.31204
144.61667	0.30286
144.58333	0.30624
144.56667	0.30785
144.55000	0.31945
144.55000	0.31720
144.55000	0.30495
144.55000	0.30785
144.53333	0.31172
144.48333	0.32090
144.35000	0.32735
144.18333	0.32445
144.05000	0.29496
143.98333	0.28707
143.98333	0.30415
143.98333	0.33331
143.98333	0.34007
143.98333	0.32316
143.98333	0.28642
143.98333	0.28723
143.98333	0.30205
143.98333	0.31220
143.98333	0.33170
143.98333	0.34555
143.98333	0.35087
143.98333	0.34587
143.98333	0.31236
143.98333	0.32122
143.98333	0.34217
143.98333	0.35522
143.98333	0.34571
143.98333	0.33846
143.98333	0.34491
143.98333	0.35216
143.98333	0.34716
143.98333	0.34700
143.98333	0.34861
143.98333	0.34620
143.98333	0.34523
143.96667	0.33508
143.96667	0.34217
143.96667	0.33911
143.96667	0.33411
143.95000	0.31220
143.90000	0.31301
143.81667	0.31236
143.75000	0.30995
143.70000	0.31526
143.65000	0.32122
143.60000	0.32219
143.55000	0.32525
143.46667	0.32976
143.30000	0.28481
143.23333	0.26629
143.18333	0.27096
143.18333	0.30850
143.18333	0.33154
143.18333	0.33057
143.18333	0.33637
143.18333	0.33508
143.18333	0.32992
143.16667	0.33379
143.16667	0.33347
143.16667	0.32880
143.15000	0.32332
143.15000	0.33073
143.15000	0.33282
143.13333	0.33202
143.13333	0.32171
143.13333	0.32686
143.13333	0.30753
143.15000	0.30979
143.15000	0.31204
143.13333	0.30511
143.13333	0.31881
143.13333	0.31849
143.13333	0.32155
143.11667	0.32864
143.10000	0.32300
143.08333	0.32139
143.06667	0.32139
143.05000	0.32574
143.01667	0.32815
142.96667	0.32735
142.86667	0.33427
142.81667	0.33057
142.71667	0.33814
142.65000	0.33991
142.56667	0.33669
142.46667	0.34620
142.40000	0.34233
142.33333	0.35377
142.30000	0.35200
142.26667	0.35184
142.23333	0.35006
142.20000	0.35667
142.15000	0.35425
142.10000	0.35457
142.08333	0.35876
142.05000	0.35312
142.01667	0.35071
141.98333	0.34765
141.95000	0.33508
141.90000	0.33347
141.88333	0.33073
141.86667	0.33444
141.86667	0.33927
141.86667	0.34845
141.86667	0.35167
141.86667	0.34749
141.86667	0.35280
141.86667	0.35103
141.86667	0.35554
141.86667	0.35683
141.83333	0.35345
141.75000	0.33524
141.66667	0.32090
141.63333	0.32976
141.60000	0.32992
141.56667	0.33331
141.51667	0.32944
141.46667	0.31881
141.43333	0.32074
141.41667	0.33943
141.41667	0.34926
141.41667	0.35022
141.41667	0.34491
141.41667	0.34442
141.41667	0.34958
141.41667	0.34555
141.41667	0.34797
141.41667	0.35119
141.40000	0.35055
141.40000	0.34136
141.40000	0.33266
141.40000	0.35103
141.40000	0.35022
141.40000	0.34523
141.38333	0.33556
141.38333	0.33540
141.38333	0.33363
141.36667	0.33621
141.36667	0.34007
141.33333	0.35506
141.33333	0.34749
141.33333	0.34056
141.33333	0.34330
141.33333	0.33492
141.33333	0.33460
141.31667	0.33170
141.26667	0.32445
141.23333	0.32783
141.20000	0.32654
141.16667	0.32976
141.11667	0.32847
141.05000	0.33911
140.93333	0.33862
140.83333	0.34539
140.75000	0.34233
140.71667	0.34249
140.70000	0.33750
140.68333	0.33717
140.65000	0.33959
140.63333	0.34668
140.60000	0.34684
140.60000	0.34958
140.58333	0.34765
140.58333	0.34749
140.56667	0.34636
140.56667	0.35812
140.56667	0.36247
140.56667	0.35409
140.56667	0.34749
140.56667	0.30447
140.56667	0.32606
140.55000	0.34233
140.55000	0.35119
140.55000	0.34636
140.55000	0.34781
140.55000	0.32912
140.55000	0.25968
140.53333	0.35232
140.53333	0.37939
140.53333	0.38325
140.53333	0.37600
140.53333	0.37971
140.53333	0.37713
140.53333	0.37665
140.53333	0.38567
140.53333	0.37230
140.53333	0.37600
140.53333	0.37745
140.51667	0.37423
140.51667	0.36634
140.48333	0.35200
140.46667	0.34314
140.41667	0.34297
140.36667	0.35167
140.30000	0.35570
140.21667	0.38245
140.11667	0.36924
140.05000	0.34910
139.95000	0.32912
139.93333	0.33524
139.93333	0.33331
139.91667	0.35619
139.91667	0.36956
139.91667	0.37616
139.90000	0.37278
139.88333	0.37197
139.86667	0.37004
139.81667	0.37069
139.73333	0.37761
139.65000	0.37359
139.53333	0.34475
139.48333	0.34088
139.45000	0.33766
139.45000	0.33460
139.45000	0.35055
139.45000	0.36134
139.45000	0.35264
139.45000	0.34845
139.45000	0.34442
139.45000	0.35216
139.45000	0.35490
139.45000	0.36070
139.45000	0.35828
139.43333	0.35490
139.43333	0.35683
139.45000	0.35844
139.45000	0.34314
139.45000	0.33202
139.43333	0.32235
139.41667	0.31575
139.35000	0.32847
139.26667	0.31977
139.23333	0.32992
139.13333	0.34523
139.01667	0.36150
138.86667	0.36859
138.73333	0.36392
138.68333	0.35957
138.66667	0.36086
138.63333	0.35312
138.63333	0.35715
138.63333	0.36344
138.63333	0.35892
138.63333	0.36940
138.63333	0.37536
138.63333	0.37826
138.63333	0.37230
138.63333	0.35796
138.63333	0.33250
138.63333	0.33879
138.63333	0.35764
138.63333	0.37020
138.61667	0.38357
138.61667	0.38680
138.60000	0.38696
138.60000	0.38535
138.58333	0.37729
138.58333	0.37745
138.56667	0.37616
138.55000	0.38164
138.51667	0.37262
138.46667	0.36424
138.40000	0.35957
138.33333	0.36263
138.23333	0.35780
138.16667	0.34587
138.01667	0.32541
137.83333	0.27337
137.68333	0.19862
137.60000	0.12853
137.55000	0.12483
137.53333	0.16317
137.51667	0.24196
137.50000	0.32719
137.50000	0.36972
137.50000	0.35699
137.48333	0.34056
137.48333	0.34781
137.48333	0.34700
137.48333	0.35103
137.48333	0.35167
137.48333	0.34877
137.46667	0.35957
137.46667	0.37165
137.46667	0.36054
137.46667	0.36376
137.45000	0.36311
137.43333	0.37987
137.41667	0.37697
137.38333	0.38502
137.36667	0.38196
137.33333	0.37939
137.30000	0.38132
137.26667	0.37455
137.18333	0.37632
137.05000	0.35989
136.86667	0.35522
136.71667	0.33637
136.68333	0.34861
136.66667	0.37020
136.65000	0.36553
136.65000	0.35715
136.63333	0.36037
136.61667	0.36698
136.56667	0.38035
136.48333	0.38035
136.38333	0.36263
136.30000	0.34426
136.26667	0.34362
136.25000	0.35909
136.23333	0.35925
136.23333	0.36537
136.23333	0.36795
136.21667	0.37955
136.21667	0.37342
136.21667	0.36054
136.21667	0.36344
136.21667	0.35941
136.21667	0.36553
136.20000	0.36215
136.20000	0.37439
136.16667	0.37294
136.10000	0.37004
136.01667	0.37552
135.95000	0.37133
135.90000	0.37197
135.78333	0.34781
135.61667	0.30624
135.56667	0.28014
135.55000	0.30028
135.53333	0.34346
135.53333	0.36408
135.53333	0.35876
135.53333	0.36392
135.53333	0.36521
135.53333	0.36682
135.53333	0.38019
135.51667	0.38776
135.51667	0.41612
135.53333	0.41838
135.53333	0.42176
135.53333	0.40710
135.53333	0.38051
135.53333	0.35361
135.53333	0.35925
135.53333	0.37020
135.53333	0.37149
135.53333	0.38583
135.53333	0.39824
135.53333	0.40549
135.53333	0.40130
135.53333	0.41225
135.53333	0.38374
135.53333	0.21811
135.53333	0.22166
135.53333	0.27579
135.53333	0.34716
135.55000	0.35151
135.55000	0.37310
135.55000	0.40178
135.55000	0.41145
135.55000	0.41821
135.55000	0.42047
135.55000	0.40307
135.55000	0.36263
135.55000	0.36585
135.55000	0.35892
135.55000	0.36505
135.55000	0.36376
135.55000	0.39469
135.55000	0.38599
135.55000	0.41483
135.55000	0.41209
135.55000	0.40742
135.55000	0.40388
135.55000	0.39646
135.55000	0.37278
135.53333	0.32719
135.53333	0.34185
135.53333	0.34781
135.53333	0.33540
135.53333	0.34732
135.51667	0.33589
135.48333	0.33540
135.36667	0.34297
135.25000	0.36134
135.20000	0.34974
135.18333	0.34459
135.15000	0.34942
135.11667	0.35506
135.08333	0.35667
135.05000	0.34475
135.01667	0.32171
134.96667	0.28481
134.91667	0.12499
134.86667	0.03219
134.80000	0.04733
134.75000	0.03783
134.70000	0.18702
134.61667	0.33299
134.55000	0.38390
134.48333	0.38970
134.45000	0.39663
134.41667	0.39083
134.36667	0.40017
134.33333	0.40613
134.30000	0.39453
134.26667	0.39566
134.23333	0.39727
134.16667	0.39405
134.11667	0.39775
134.06667	0.40629
134.03333	0.40275
133.98333	0.40291
133.95000	0.40371
133.90000	0.40661
133.88333	0.41177
133.85000	0.41129
133.83333	0.41306
133.80000	0.40742
133.78333	0.40065
133.75000	0.40065
133.71667	0.40275
133.70000	0.40065
133.68333	0.39002
133.65000	0.38599
133.58333	0.38696
133.50000	0.39679
133.36667	0.39904
133.28333	0.37246
133.18333	0.35425
133.10000	0.32477
133.01667	0.30914
132.93333	0.32203
132.90000	0.32719
132.88333	0.39292
132.88333	0.39904
132.86667	0.40001
132.85000	0.40049
132.81667	0.39663
132.75000	0.37391
132.63333	0.32316
132.53333	0.27144
132.50000	0.29400
132.50000	0.36972
132.50000	0.38664
132.48333	0.40065
132.48333	0.40452
132.48333	0.40903
132.48333	0.40001
132.48333	0.40178
132.48333	0.40291
132.48333	0.42788
132.48333	0.43384
132.48333	0.37149
132.48333	0.32928
132.48333	0.32364
132.48333	0.33154
132.48333	0.40581
132.48333	0.42659
132.48333	0.42208
132.48333	0.41064
132.48333	0.41483
132.48333	0.42466
132.48333	0.42401
132.48333	0.42965
132.48333	0.42337
132.45000	0.40823
132.33333	0.39888
132.15000	0.40549
132.01667	0.41322
131.95000	0.42128
131.90000	0.42015
131.81667	0.42063
131.73333	0.41934
131.66667	0.42015
131.63333	0.40806
131.60000	0.40291
131.58333	0.41660
131.53333	0.41177
131.45000	0.40645
131.33333	0.41370
131.21667	0.42466
131.10000	0.42353
130.98333	0.41676
130.83333	0.42724
130.63333	0.42128
130.43333	0.42611
130.30000	0.41322
130.18333	0.02897
130.10000	0.00271
130.01667	0.00110
129.90000	0.00222
129.81667	0.03316
129.75000	0.39679
129.68333	0.42482
129.63333	0.42530
129.60000	0.42192
129.56667	0.40758
129.55000	0.40178
129.53333	0.40081
129.53333	0.41032
129.53333	0.41773
129.53333	0.41741
129.53333	0.42418
129.51667	0.43803
129.50000	0.44045
129.43333	0.45350
129.38333	0.45640
129.30000	0.45011
129.20000	0.45736
129.11667	0.45688
129.03333	0.47315
128.95000	0.46671
128.91667	0.46413
128.91667	0.46155
128.90000	0.46123
128.90000	0.46252
128.90000	0.46220
128.90000	0.45318
128.91667	0.43368
128.91667	0.42981
128.91667	0.47831
128.91667	0.43868
128.91667	0.35409
128.91667	0.36215
128.91667	0.47702
128.91667	0.47976
128.91667	0.46574
128.91667	0.45656
128.91667	0.44045
128.91667	0.44383
128.91667	0.44528
128.91667	0.44351
128.91667	0.44576
128.93333	0.44689
128.93333	0.45124
128.93333	0.46623
128.93333	0.46397
128.93333	0.46703
128.93333	0.46123
128.93333	0.44915
128.93333	0.43690
128.93333	0.41676
128.93333	0.40629
128.93333	0.41676
128.93333	0.43771
128.91667	0.43900
128.91667	0.43239
128.93333	0.37391
128.93333	0.26161
128.93333	0.26838
128.91667	0.38051
128.91667	0.40661
128.91667	0.41773
128.91667	0.43706
128.91667	0.44995
128.90000	0.46913
128.90000	0.47847
128.90000	0.47799
128.88333	0.48346
128.86667	0.47509
128.85000	0.48169
128.76667	0.47025
128.68333	0.43980
128.55000	0.38084
128.38333	0.36843
128.11667	0.39904
127.85000	0.43835
127.65000	0.45994
127.55000	0.45205
127.45000	0.45624
127.31667	0.46510
127.21667	0.45994
127.15000	0.46784
127.05000	0.47235
126.91667	0.48201
126.73333	0.49233
126.56667	0.47476
126.40000	0.44689
126.30000	0.42965
126.25000	0.41725
126.20000	0.44657
126.16667	0.48975
126.10000	0.48862
126.00000	0.48798
125.86667	0.48459
125.73333	0.46236
125.63333	0.44673
125.55000	0.42724
125.46667	0.42885
125.40000	0.43223
125.33333	0.45978
125.28333	0.47331
125.26667	0.48749
125.23333	0.48346
125.21667	0.48975
125.20000	0.48653
125.20000	0.48975
125.20000	0.47718
125.18333	0.47186
125.18333	0.46719
125.16667	0.47315
125.13333	0.48105
125.06667	0.48653
124.98333	0.48508
124.91667	0.48524
124.85000	0.48814
124.73333	0.47557
124.65000	0.46107
124.56667	0.43868
124.46667	0.41113
124.38333	0.40404
124.33333	0.41338
124.31667	0.45688
124.28333	0.47267
124.23333	0.46929
124.16667	0.47154
124.08333	0.47283
124.00000	0.47444
123.91667	0.47041
123.85000	0.47380
123.76667	0.46333
123.66667	0.45011
123.58333	0.44866
123.53333	0.44448
123.48333	0.45028
123.43333	0.45076
123.36667	0.46542
123.28333	0.46574
123.21667	0.47621
123.13333	0.47815
123.06667	0.47879
123.00000	0.49055
122.91667	0.49249
122.86667	0.49039
122.83333	0.49152
122.81667	0.48701
122.80000	0.47831
122.80000	0.46478
122.80000	0.44721
122.78333	0.45430
122.78333	0.45301
122.78333	0.46284
122.78333	0.47928
122.78333	0.49410
122.78333	0.50393
122.78333	0.51359
122.80000	0.52068
122.80000	0.53357
122.80000	0.52680
122.80000	0.53180
122.80000	0.53373
122.80000	0.53695
122.80000	0.53454
122.80000	0.53131
122.78333	0.52374
122.78333	0.52197
122.78333	0.52326
122.80000	0.51585
122.80000	0.51859
122.80000	0.50473
122.80000	0.49506
122.80000	0.49635
122.80000	0.48008
122.80000	0.46751
122.80000	0.45173
122.80000	0.45753
122.80000	0.50731
122.80000	0.49490
122.80000	0.49088
122.80000	0.48040
122.80000	0.48266
122.78333	0.49716
122.78333	0.50457
122.66667	0.51617
122.43333	0.46606
122.31667	0.41983
122.21667	0.46445
122.15000	0.48282
122.03333	0.48459
121.75000	0.44367
121.45000	0.34829
121.25000	0.24792
121.01667	0.13562
120.83333	0.05007
120.75000	0.05104
120.68333	0.14416
120.65000	0.22214
120.58333	0.24244
120.53333	0.25372
120.45000	0.23100
120.41667	0.24856
120.38333	0.28787
120.33333	0.32203
120.30000	0.33492
120.28333	0.35135
120.26667	0.36247
120.26667	0.39679
120.26667	0.39936
120.26667	0.41032
120.26667	0.41983
120.28333	0.42111
120.28333	0.42514
120.28333	0.42643
120.28333	0.43288
120.28333	0.42949
120.28333	0.43400
120.28333	0.44415
120.28333	0.45011
120.28333	0.47766
120.28333	0.49442
120.28333	0.49603
120.28333	0.49974
120.28333	0.50215
120.28333	0.49877
120.28333	0.50747
120.28333	0.52568
120.28333	0.52793
120.28333	0.54533
120.28333	0.54598
120.28333	0.54920
120.28333	0.55065
120.28333	0.54404
120.28333	0.54936
120.28333	0.54743
120.28333	0.53212
120.28333	0.51939
120.28333	0.51101
120.28333	0.50425
120.28333	0.50167
120.28333	0.50328
120.28333	0.51971
120.28333	0.52986
120.28333	0.53905
120.28333	0.54565
120.28333	0.54952
120.28333	0.54759
120.28333	0.55371
120.28333	0.55629
120.28333	0.55451
120.28333	0.53711
120.28333	0.51472
120.28333	0.48798
120.28333	0.50602
120.28333	0.51778
120.28333	0.54420
120.28333	0.54920
120.28333	0.55596
120.28333	0.55306
120.28333	0.55097
120.28333	0.54984
120.28333	0.55033
120.28333	0.54807
120.28333	0.53728
120.28333	0.53518
120.28333	0.52970
120.28333	0.54436
120.28333	0.55226
120.28333	0.55564
120.28333	0.55596
120.26667	0.55371
120.26667	0.55774
120.26667	0.55242
120.26667	0.55661
120.26667	0.55161
120.26667	0.55693
120.26667	0.54984
120.26667	0.55194
120.26667	0.55387
120.26667	0.55983
120.25000	0.54485
120.16667	0.54775
119.90000	0.55725
119.71667	0.56048
119.58333	0.56547
119.46667	0.56531
119.36667	0.56579
119.25000	0.56434
119.08333	0.55951
118.88333	0.52390
118.66667	0.47960
118.45000	0.41596
118.30000	0.35586
118.16667	0.32074
118.05000	0.28546
117.96667	0.28820
117.88333	0.31913
117.83333	0.32767
117.81667	0.36424
117.78333	0.38261
117.76667	0.40694
117.76667	0.41660
117.76667	0.43723
117.78333	0.45591
117.78333	0.46703
117.78333	0.46107
117.78333	0.42836
117.80000	0.37101
117.80000	0.30995
117.83333	0.30270
117.85000	0.28062
117.90000	0.29287
117.93333	0.26484
117.96667	0.24872
117.98333	0.24969
118.00000	0.25646
118.01667	0.24325
118.03333	0.20200
118.03333	0.16285
118.05000	0.15625
118.06667	0.19846
118.10000	0.31800
118.11667	0.43110
118.13333	0.49168
118.15000	0.50521
118.15000	0.52600
118.18333	0.54404
118.20000	0.54920
118.21667	0.54646
118.25000	0.55033
118.26667	0.54050
118.30000	0.53711
118.31667	0.52487
118.35000	0.51633
118.36667	0.51939
118.40000	0.52584
118.45000	0.51971
118.48333	0.53051
118.51667	0.53599
118.56667	0.54018
118.61667	0.53905
118.70000	0.53534
118.75000	0.52938
118.78333	0.52197
118.80000	0.51875
118.85000	0.51585
118.88333	0.51021
118.91667	0.50795
118.93333	0.51166
118.95000	0.51279
119.00000	0.51359
119.06667	0.51085
119.11667	0.51263
119.15000	0.51923
119.20000	0.52100
119.23333	0.52052
119.30000	0.52423
119.35000	0.52745
119.41667	0.53276
119.48333	0.52568
119.51667	0.50860
119.56667	0.50650
119.61667	0.51166
119.66667	0.51762
119.70000	0.51279
119.75000	0.50215
119.76667	0.49571
119.80000	0.50135
119.81667	0.50248
119.85000	0.50844
119.88333	0.51553
119.93333	0.51585
119.96667	0.51343
119.98333	0.51101
120.03333	0.51198
120.08333	0.51053
120.13333	0.51327
120.16667	0.50795
120.20000	0.51327
120.25000	0.50489
120.28333	0.49845
120.30000	0.49668
120.31667	0.48878
120.31667	0.48894
120.31667	0.48798
120.33333	0.48298
120.33333	0.49039
120.35000	0.49168
120.35000	0.49474
120.35000	0.48669
120.35000	0.49345
120.36667	0.50409
120.36667	0.49974
120.38333	0.50167
120.38333	0.49442
120.41667	0.49684
120.48333	0.49216
120.55000	0.48781
120.58333	0.48926
120.63333	0.48878
120.66667	0.49410
120.70000	0.49184
120.71667	0.49990
120.73333	0.49587
120.75000	0.50683
120.76667	0.50811
120.81667	0.50876
120.85000	0.50505
120.90000	0.50844
120.93333	0.50312
121.00000	0.49684
121.06667	0.49426
121.10000	0.48781
121.15000	0.48765
121.21667	0.47879
121.28333	0.47348
121.33333	0.47605
121.35000	0.48427
121.36667	0.48363
121.40000	0.47702
121.45000	0.48169
121.48333	0.47799
121.48333	0.48153
121.50000	0.48556
121.50000	0.49265
121.50000	0.49587
121.50000	0.49249
121.50000	0.49329
121.50000	0.49619
121.50000	0.50022
121.51667	0.50344
121.51667	0.50425
121.51667	0.50666
121.51667	0.50811
121.51667	0.50956
121.51667	0.50876
121.53333	0.51021
121.55000	0.51859
121.55000	0.52197
121.56667	0.51424
121.58333	0.51601
121.61667	0.51456
121.68333	0.51198
121.81667	0.51730
121.96667	0.50376
122.10000	0.47476
122.18333	0.47299
122.20000	0.47251
122.21667	0.46558
122.25000	0.47170
122.30000	0.48089
122.36667	0.47960
122.41667	0.48201
122.45000	0.48153
122.46667	0.49941
122.46667	0.50989
122.46667	0.50747
122.46667	0.50683
122.48333	0.51263
122.48333	0.50973
122.48333	0.49958
122.48333	0.49990
122.48333	0.50683
122.50000	0.50715
122.51667	0.50199
122.53333	0.50457
122.56667	0.49329
122.58333	0.49297
122.58333	0.49023
122.58333	0.50054
122.58333	0.50779
122.58333	0.50376
122.58333	0.50328
122.60000	0.50956
122.65000	0.50779
122.68333	0.51005
122.71667	0.51166
122.76667	0.50844
122.85000	0.49523
122.93333	0.48524
123.00000	0.47476
123.10000	0.46993
123.20000	0.45720
123.28333	0.43658
123.35000	0.39308
123.40000	0.34394
123.46667	0.22279
123.50000	0.18605
123.50000	0.24824
123.50000	0.34781
123.48333	0.41435
123.48333	0.46333
123.48333	0.48798
123.48333	0.50360
123.48333	0.51504
123.46667	0.51714
123.46667	0.53711
123.46667	0.48330
123.46667	0.49925
123.46667	0.51069
123.46667	0.50231
123.46667	0.51198
123.46667	0.50973
123.46667	0.50505
123.46667	0.50683
123.46667	0.51101
123.46667	0.52213
123.45000	0.53083
123.45000	0.53083
123.43333	0.52890
123.40000	0.53180
123.36667	0.52680
123.33333	0.52664
123.30000	0.51955
123.25000	0.52036
123.18333	0.51875
123.18333	0.52245
123.18333	0.52874
123.18333	0.52729
123.16667	0.52181
123.08333	0.51295
123.00000	0.50070
122.85000	0.48491
122.71667	0.45382
122.63333	0.44963
122.56667	0.42901
122.53333	0.43884
122.48333	0.46059
122.43333	0.48508
122.40000	0.51665
122.35000	0.52551
122.33333	0.51988
122.33333	0.51907
122.31667	0.52938
122.30000	0.53873
122.26667	0.54050
122.23333	0.53164
122.18333	0.53405
122.11667	0.53695
122.00000	0.52245
121.80000	0.50119
121.60000	0.46188
121.51667	0.43706
121.46667	0.43980
121.41667	0.45624
121.40000	0.48749
121.40000	0.53776
121.40000	0.52745
121.40000	0.51343
121.40000	0.50699
121.38333	0.50924
121.38333	0.49941
121.38333	0.50989
121.36667	0.51536
121.36667	0.51504
121.36667	0.52600
121.36667	0.53357
121.36667	0.54598
121.36667	0.54581
121.36667	0.55306
121.36667	0.54855
121.36667	0.53937
121.38333	0.52181
121.38333	0.51021
121.38333	0.49974
121.38333	0.49587
121.36667	0.50731
121.36667	0.53293
121.36667	0.54984
121.33333	0.53276
121.08333	0.52970
120.76667	0.54146
120.43333	0.52245
120.16667	0.46204
120.01667	0.43400
119.88333	0.42240
119.78333	0.41467
119.70000	0.42498
119.61667	0.43304
119.58333	0.49442
119.56667	0.52455
119.55000	0.52938
119.53333	0.52165
119.51667	0.50666
119.46667	0.48604
119.41667	0.45704
119.36667	0.44190
119.31667	0.41757
119.26667	0.39018
119.23333	0.37971
119.23333	0.37906
119.25000	0.39083
119.25000	0.41564
119.25000	0.42530
119.26667	0.43030
119.26667	0.42836
119.28333	0.41338
119.30000	0.41499
119.31667	0.41032
119.35000	0.40903
119.38333	0.41338
119.43333	0.42530
119.48333	0.42450
119.50000	0.40806
119.53333	0.39195
119.55000	0.39018
119.60000	0.40871
119.66667	0.43416
119.71667	0.45769
119.75000	0.46397
119.76667	0.46300
119.76667	0.45736
119.78333	0.45801
119.80000	0.45785
119.81667	0.47058
119.86667	0.47863
119.91667	0.49426
119.98333	0.52374
120.03333	0.53711
120.05000	0.54565
120.08333	0.54227
120.10000	0.54501
120.11667	0.55323
120.13333	0.55629
120.16667	0.55290
120.18333	0.55033
120.21667	0.55000
120.25000	0.55097
120.30000	0.54485
120.36667	0.54291
120.45000	0.53341
120.51667	0.52600
120.56667	0.52439
120.65000	0.52600
120.71667	0.52568
120.76667	0.51971
120.83333	0.51746
120.91667	0.50811
121.01667	0.49571
121.11667	0.49635
121.18333	0.48733
121.21667	0.47960
121.23333	0.48814
121.23333	0.49007
121.23333	0.49764
121.23333	0.50715
121.23333	0.52100
121.23333	0.51698
121.23333	0.52245
121.23333	0.54291
121.21667	0.55258
121.21667	0.54485
121.20000	0.52616
121.18333	0.51311
121.15000	0.49313
121.10000	0.45801
120.98333	0.46236
120.71667	0.52326
120.48333	0.51295
120.35000	0.47557
120.21667	0.43126
120.05000	0.35731
119.88333	0.25887
119.80000	0.19781
119.71667	0.17107
119.65000	0.29545
119.60000	0.43787
119.58333	0.46880
119.53333	0.46043
119.50000	0.45092
119.45000	0.44866
119.41667	0.45156
119.40000	0.46510
119.38333	0.48943
119.36667	0.49748
119.36667	0.52261
119.36667	0.51891
119.35000	0.52471
119.33333	0.51843
119.28333	0.51520
119.18333	0.48524
119.08333	0.46155
119.03333	0.47154
118.96667	0.50119
118.91667	0.52777
118.86667	0.53228
118.78333	0.53228
118.71667	0.52729
118.61667	0.51665
118.48333	0.51649
118.31667	0.47799
118.08333	0.42933
117.85000	0.36505
117.65000	0.30447
117.51667	0.27676
117.41667	0.28207
117.40000	0.31349
117.38333	0.37359
117.38333	0.43819
117.38333	0.47702
117.38333	0.50167
117.38333	0.49877
117.38333	0.49184
117.38333	0.47815
117.38333	0.45318
117.38333	0.43336
117.38333	0.40533
117.38333	0.34829
117.38333	0.23696
117.38333	0.14658
117.38333	0.29641
117.38333	0.39453
117.40000	0.46800
117.40000	0.47750
117.40000	0.46993
117.40000	0.46155
117.40000	0.45849
117.40000	0.44689
117.40000	0.45704
117.40000	0.46300
117.40000	0.47605
117.41667	0.46880
117.41667	0.48765
117.41667	0.53260
117.41667	0.55886
117.41667	0.54662
117.41667	0.51246
117.41667	0.48556
117.41667	0.46703
117.41667	0.42981
117.43333	0.38567
117.43333	0.34813
117.43333	0.36327
117.43333	0.42740
117.43333	0.44899
117.45000	0.44721
117.45000	0.45801
117.45000	0.47203
117.45000	0.47718
117.46667	0.48008
117.46667	0.51021
117.46667	0.52874
117.46667	0.57014
117.46667	0.57755
117.46667	0.58335
117.46667	0.58158
117.46667	0.58577
117.46667	0.58577
117.45000	0.56789
117.45000	0.27998
117.43333	0.06328
117.43333	0.17059
117.41667	0.29641
117.40000	0.40645
117.40000	0.44738
117.36667	0.46800
117.21667	0.50908
116.98333	0.53518
116.85000	0.56354
116.78333	0.57900
116.73333	0.58980
116.71667	0.59141
116.71667	0.57143
116.71667	0.54743
116.71667	0.49700
116.71667	0.46832
116.71667	0.46671
116.71667	0.50135
116.71667	0.56628
116.71667	0.59238
116.71667	0.59318
116.71667	0.59640
116.70000	0.59930
116.70000	0.59608
116.70000	0.59463
116.68333	0.60059
116.65000	0.59946
116.58333	0.59447
116.46667	0.59850
116.36667	0.59979
116.25000	0.58964
116.13333	0.58867
116.06667	0.58964
116.03333	0.58770
115.98333	0.57916
115.93333	0.57046
115.86667	0.56918
115.76667	0.55033
115.65000	0.53534
115.55000	0.49861
115.43333	0.47750
115.33333	0.45688
115.25000	0.43159
115.16667	0.42772
115.10000	0.43610
115.08333	0.50860
115.06667	0.55484
115.06667	0.56305
115.05000	0.55677
115.03333	0.55033
115.03333	0.53921
115.01667	0.51504
114.96667	0.50393
114.90000	0.48185
114.78333	0.46333
114.56667	0.46365
114.51667	0.49732
114.48333	0.50666
114.43333	0.48137
114.35000	0.44238
114.25000	0.38825
114.13333	0.34394
114.05000	0.25887
114.00000	0.19636
113.98333	0.21054
113.96667	0.23729
113.96667	0.26886
113.96667	0.27740
113.98333	0.25324
113.98333	0.21989
113.98333	0.13740
113.98333	0.06296
114.00000	0.05716
114.00000	0.04331
114.01667	0.07118
114.01667	0.19475
114.03333	0.31478
114.03333	0.32187
114.03333	0.31752
114.03333	0.36311
114.03333	0.37729
114.03333	0.38792
114.03333	0.37649
114.03333	0.37713
114.03333	0.41644
114.03333	0.47154
114.03333	0.55580
114.05000	0.57546
114.05000	0.61686
114.05000	0.63668
114.05000	0.60897
114.06667	0.59028
114.06667	0.60639
114.05000	0.62379
114.05000	0.62830
114.05000	0.63104
114.05000	0.58174
114.05000	0.59753
114.05000	0.60607
114.05000	0.59834
114.05000	0.60607
114.05000	0.59495
114.05000	0.58915
114.05000	0.57884
114.05000	0.58142
114.05000	0.57030
114.05000	0.57401
114.05000	0.58287
114.05000	0.58867
114.03333	0.57562
114.03333	0.57723
114.03333	0.57981
114.03333	0.58625
114.03333	0.58722
114.01667	0.61010
114.01667	0.61815
114.00000	0.61332
114.00000	0.61558
114.00000	0.61509
114.00000	0.60816
113.98333	0.60575
113.98333	0.59898
113.98333	0.60655
113.98333	0.60510
113.98333	0.61058
113.96667	0.62573
113.96667	0.62073
113.96667	0.61767
113.96667	0.61316
113.95000	0.62234
113.93333	0.62154
113.86667	0.63056
113.73333	0.62041
113.66667	0.60623
113.63333	0.58658
113.61667	0.56628
113.58333	0.55596
113.56667	0.54678
113.55000	0.56015
113.53333	0.55806
113.53333	0.57111
113.53333	0.56998
113.53333	0.58142
113.53333	0.59914
113.53333	0.59785
113.53333	0.60075
113.53333	0.59624
113.53333	0.58835
113.53333	0.58126
113.53333	0.57804
113.53333	0.57804
113.53333	0.57610
113.53333	0.58078
113.53333	0.58641
113.53333	0.60816
113.53333	0.62927
113.53333	0.61960
113.55000	0.62009
113.55000	0.61960
113.55000	0.61251
113.55000	0.61590
113.55000	0.60478
113.55000	0.60011
113.55000	0.59818
113.55000	0.60543
113.55000	0.61155
113.55000	0.60607
113.55000	0.60414
113.55000	0.60961
113.55000	0.61719
113.55000	0.61509
113.55000	0.61944
113.55000	0.62186
113.55000	0.62395
113.55000	0.61703
113.55000	0.62718
113.55000	0.62927
113.55000	0.62379
113.55000	0.62669
113.55000	0.63024
113.55000	0.62943
113.55000	0.62508
113.55000	0.62089
113.55000	0.61767
113.55000	0.61944
113.53333	0.62025
113.53333	0.62105
113.53333	0.62750
113.53333	0.62637
113.53333	0.62847
113.53333	0.62718
113.53333	0.62347
113.53333	0.62975
113.53333	0.62524
113.53333	0.62202
113.53333	0.62766
113.53333	0.62750
113.53333	0.62959
113.53333	0.62347
113.53333	0.61703
113.53333	0.60704
113.53333	0.60816
113.55000	0.60156
113.55000	0.60446
113.55000	0.61976
113.55000	0.62089
113.55000	0.62025
113.55000	0.62105
113.55000	0.62460
113.55000	0.62814
113.55000	0.61993
113.55000	0.62669
113.55000	0.62847
113.55000	0.63024
113.55000	0.62444
113.53333	0.62299
113.53333	0.62444
113.51667	0.63330
113.51667	0.62573
113.50000	0.61606
113.46667	0.61944
113.30000	0.62669
113.13333	0.61413
113.01667	0.59399
112.96667	0.57514
112.95000	0.55613
112.90000	0.55113
112.86667	0.56176
112.85000	0.59673
112.83333	0.62508
112.81667	0.63185
112.80000	0.62895
112.76667	0.62750
112.65000	0.59769
112.43333	0.52713
112.28333	0.46913
112.26667	0.44657
112.25000	0.45060
112.23333	0.47750
112.20000	0.50393
112.18333	0.51762
112.16667	0.52116
112.11667	0.53099
112.05000	0.51875
111.90000	0.47766
111.68333	0.39630
111.60000	0.35989
111.58333	0.39163
111.56667	0.47154
111.56667	0.53051
111.56667	0.55097
111.56667	0.54726
111.55000	0.54920
111.55000	0.54356
111.55000	0.54904
111.55000	0.55403
111.55000	0.56499
111.55000	0.57626
111.56667	0.58255
111.56667	0.58416
111.55000	0.59673
111.55000	0.60607
111.55000	0.60768
111.55000	0.62750
111.55000	0.63346
111.55000	0.64200
111.55000	0.64055
111.55000	0.63974
111.56667	0.64248
111.56667	0.63926
111.56667	0.63862
111.56667	0.64570
111.56667	0.64361
111.56667	0.63829
111.56667	0.63008
111.55000	0.63926
111.55000	0.63008
111.55000	0.61896
111.55000	0.61896
111.55000	0.62057
111.55000	0.61896
111.55000	0.61509
111.55000	0.62557
111.53333	0.62524
111.51667	0.62250
111.40000	0.58561
111.31667	0.58432
111.30000	0.61654
111.30000	0.64329
111.28333	0.64554
111.28333	0.64764
111.28333	0.64941
111.23333	0.65279
111.06667	0.63040
110.95000	0.59544
110.90000	0.58094
110.88333	0.58158
110.86667	0.57868
110.86667	0.58609
110.85000	0.60027
110.85000	0.60510
110.81667	0.62621
110.75000	0.63894
110.70000	0.63781
110.66667	0.65167
110.63333	0.65005
110.61667	0.64651
110.61667	0.62218
110.60000	0.60816
110.60000	0.59801
110.60000	0.58529
110.60000	0.58690
110.60000	0.58835
110.58333	0.59415
110.53333	0.59769
110.45000	0.61364
110.33333	0.62557
110.20000	0.64619
110.18333	0.64635
110.16667	0.64345
110.16667	0.64313
110.15000	0.64216
110.15000	0.64377
110.13333	0.63717
110.13333	0.64023
110.13333	0.64071
110.11667	0.63475
110.11667	0.62524
110.11667	0.61751
110.11667	0.61139
110.11667	0.61461
110.11667	0.62331
110.11667	0.62734
110.10000	0.63813
110.08333	0.64071
109.98333	0.66133
109.90000	0.67052
109.85000	0.66649
109.80000	0.67084
109.78333	0.66842
109.75000	0.66455
109.73333	0.65875
109.73333	0.66133
109.73333	0.65988
109.71667	0.64619
109.71667	0.63733
109.68333	0.63217
109.66667	0.63056
109.65000	0.62750
109.61667	0.62830
109.60000	0.64377
109.56667	0.65537
109.56667	0.66069
109.56667	0.66713
109.56667	0.67035
109.58333	0.67954
109.58333	0.67986
109.60000	0.64732
109.61667	0.60075
109.61667	0.56789
109.63333	0.54968
109.63333	0.47879
109.63333	0.48443
109.63333	0.29947
109.63333	0.34523
109.63333	0.37423
109.63333	0.43996
109.63333	0.57916
109.63333	0.63974
109.65000	0.66101
109.65000	0.66778
109.65000	0.66375
109.65000	0.67277
109.65000	0.63652
109.65000	0.64071
109.65000	0.69533
109.65000	0.70322
109.65000	0.69807
109.65000	0.70258
109.63333	0.69678
109.63333	0.68050
109.63333	0.59093
109.61667	0.45575
109.63333	0.46880
109.65000	0.56160
109.65000	0.63185
109.66667	0.67261
109.66667	0.67487
109.66667	0.66794
109.66667	0.61171
109.68333	0.55645
109.68333	0.58206
109.70000	0.68969
109.70000	0.69339
109.71667	0.68679
109.71667	0.69227
109.71667	0.69726
109.71667	0.69968
109.71667	0.69613
109.71667	0.68695
109.71667	0.68920
109.71667	0.68792
109.71667	0.64699
109.71667	0.65940
109.71667	0.69275
109.71667	0.69436
109.71667	0.68953
109.71667	0.67809
109.71667	0.68566
109.71667	0.68663
109.70000	0.69210
109.70000	0.69549
109.70000	0.69420
109.70000	0.68775
109.70000	0.68389
109.68333	0.68308
109.68333	0.68453
109.66667	0.68856
109.65000	0.69420
109.65000	0.68647
109.63333	0.67760
109.61667	0.66391
109.60000	0.66294
109.56667	0.66874
109.45000	0.67454
109.26667	0.69146
109.13333	0.69565
109.03333	0.69049
108.98333	0.68759
108.96667	0.69065
108.95000	0.68759
108.93333	0.68179
108.88333	0.67035
108.83333	0.64989
108.83333	0.65763
108.81667	0.66939
108.81667	0.69484
108.80000	0.70435
108.78333	0.69355
108.75000	0.69597
108.70000	0.69114
108.61667	0.70435
108.51667	0.70612
108.36667	0.69710
108.16667	0.67213
108.00000	0.65360
107.88333	0.62766
107.83333	0.65054
107.80000	0.69098
107.75000	0.71450
107.71667	0.71595
107.65000	0.71385
107.58333	0.72094
107.50000	0.71079
107.43333	0.72400
107.35000	0.72562
107.26667	0.71965
107.18333	0.71595
107.11667	0.70225
107.05000	0.66037
107.01667	0.65134
106.98333	0.64506
106.96667	0.65295
106.90000	0.66455
106.81667	0.69082
106.70000	0.70644
106.61667	0.72964
106.56667	0.73432
106.53333	0.73786
106.48333	0.73270
106.40000	0.72384
106.36667	0.70934
106.35000	0.71385
106.33333	0.70274
106.31667	0.71079
106.30000	0.71273
106.30000	0.71289
106.28333	0.71772
106.26667	0.72739
106.25000	0.73013
106.21667	0.73367
106.20000	0.72916
106.13333	0.72819
106.05000	0.72642
106.00000	0.71530
105.95000	0.69694
105.95000	0.70467
105.93333	0.69968
105.91667	0.70773
105.86667	0.69919
105.81667	0.67374
105.78333	0.66504
105.73333	0.65408
105.68333	0.64184
105.65000	0.66375
105.63333	0.68373
105.61667	0.71740
105.60000	0.72272
105.58333	0.72320
105.55000	0.71708
105.51667	0.71208
105.48333	0.70596
105.41667	0.68792
105.31667	0.65231
105.21667	0.63507
105.15000	0.65167
105.13333	0.66455
105.11667	0.69033
105.11667	0.71579
105.11667	0.73818
105.11667	0.75010
105.11667	0.74463
105.11667	0.74318
105.11667	0.73415
105.13333	0.71015
105.13333	0.68018
105.13333	0.63652
105.13333	0.63201
105.13333	0.63491
105.13333	0.64200
105.11667	0.64844
105.11667	0.64200
105.08333	0.65150
104.96667	0.66552
104.90000	0.66907
104.86667	0.67470
104.85000	0.67422
104.83333	0.67374
104.81667	0.67052
104.78333	0.67245
104.75000	0.68244
104.70000	0.68663
104.65000	0.69952
104.58333	0.71708
104.53333	0.72078
104.50000	0.72417
104.46667	0.73480
104.45000	0.73883
104.41667	0.73915
104.36667	0.74785
104.31667	0.74914
104.25000	0.76235
104.20000	0.76428
104.15000	0.76654
104.11667	0.76895
104.08333	0.76460
104.06667	0.73738
104.05000	0.72787
104.03333	0.73802
104.00000	0.74124
103.98333	0.74962
103.98333	0.75768
103.96667	0.76187
103.96667	0.76090
103.96667	0.76074
103.96667	0.76412
103.96667	0.76928
103.96667	0.77540
103.96667	0.77701
103.96667	0.76396
103.96667	0.76638
103.98333	0.75478
103.98333	0.72932
103.98333	0.72690
103.98333	0.77008
103.98333	0.77379
103.98333	0.77927
104.00000	0.79038
104.00000	0.79618
104.00000	0.79135
104.00000	0.78909
104.00000	0.79022
104.00000	0.78845
104.00000	0.78442
104.00000	0.78909
104.00000	0.78007
104.00000	0.76589
104.01667	0.75478
104.01667	0.75043
104.01667	0.73206
104.01667	0.72578
104.01667	0.74511
104.01667	0.77927
104.01667	0.75848
104.01667	0.66004
104.00000	0.61203
104.00000	0.62428
104.00000	0.66391
103.98333	0.72223
103.96667	0.75010
103.93333	0.77218
103.88333	0.77427
103.83333	0.77250
103.76667	0.78571
103.65000	0.78136
103.51667	0.71434
103.40000	0.66520
103.31667	0.64554
103.26667	0.66681
103.23333	0.71627
103.21667	0.76783
103.21667	0.78410
103.21667	0.78587
103.21667	0.73512
103.21667	0.63797
103.21667	0.50296
103.23333	0.46929
103.23333	0.53566
103.23333	0.59254
103.25000	0.61300
103.25000	0.64425
103.23333	0.69887
103.23333	0.72400
103.23333	0.76154
103.23333	0.75768
103.23333	0.76364
103.23333	0.77105
103.23333	0.77975
103.25000	0.80504
103.25000	0.81487
103.25000	0.81535
103.25000	0.81487
103.25000	0.79070
103.25000	0.76154
103.25000	0.75703
103.25000	0.74382
103.25000	0.74060
103.25000	0.74318
103.25000	0.73689
103.25000	0.72562
103.25000	0.72497
103.25000	0.72674
103.25000	0.73367
103.25000	0.73770
103.25000	0.74833
103.23333	0.75848
103.23333	0.75107
103.23333	0.74269
103.21667	0.74430
103.20000	0.75397
103.10000	0.77266
102.85000	0.80166
102.66667	0.81922
102.61667	0.81568
102.61667	0.77782
102.60000	0.63862
102.60000	0.24051
102.56667	0.14142
102.46667	0.28449
102.28333	0.62879
102.11667	0.75671
101.98333	0.80343
101.91667	0.82776
101.85000	0.82148
101.80000	0.81600
101.78333	0.81036
101.78333	0.81761
101.78333	0.81680
101.78333	0.81471
101.78333	0.82132
101.78333	0.83211
101.78333	0.82357
101.78333	0.81390
101.78333	0.81133
101.76667	0.80198
101.76667	0.81632
101.76667	0.81616
101.75000	0.82357
101.68333	0.83147
101.60000	0.83533
101.53333	0.83533
101.43333	0.83614
101.35000	0.83243
101.25000	0.83066
101.16667	0.83904
101.10000	0.83179
101.03333	0.82905
100.98333	0.84000
100.93333	0.84274
100.86667	0.83275
100.83333	0.78587
100.78333	0.77991
100.73333	0.78539
100.70000	0.79828
100.65000	0.80247
100.61667	0.81229
100.56667	0.83002
100.51667	0.83904
100.46667	0.84339
100.41667	0.85048
100.38333	0.85451
100.35000	0.85934
100.33333	0.85451
100.26667	0.85918
100.20000	0.85499
100.15000	0.83759
100.10000	0.85225
100.06667	0.86369
100.00000	0.86143
99.93333	0.86304
99.88333	0.85531
99.85000	0.84935
99.83333	0.84661
99.80000	0.83404
99.76667	0.82728
99.75000	0.83872
99.73333	0.85128
99.68333	0.83936
99.60000	0.83920
99.55000	0.83694
99.51667	0.83759
99.50000	0.85531
99.50000	0.86691
99.45000	0.86675
99.38333	0.86643
99.31667	0.84838
99.28333	0.86756
99.26667	0.87964
99.21667	0.87883
99.16667	0.87851
99.10000	0.87432
99.03333	0.87223
98.98333	0.86482
98.91667	0.86208
98.86667	0.86111
98.80000	0.87029
98.71667	0.88769
98.61667	0.88141
98.50000	0.90123
98.43333	0.89881
98.38333	0.90445
98.35000	0.90509
98.31667	0.89768
98.30000	0.89978
98.26667	0.90445
98.25000	0.89446
98.23333	0.90155
98.23333	0.89543
98.21667	0.90203
98.20000	0.90638
98.16667	0.90542
98.13333	0.88302
98.10000	0.86047
98.08333	0.84903
98.08333	0.85483
98.05000	0.85306
98.01667	0.85902
97.95000	0.87174
97.86667	0.89430
97.78333	0.90364
97.73333	0.91073
97.70000	0.91750
97.66667	0.91251
97.65000	0.91412
97.61667	0.91863
97.60000	0.90848
97.58333	0.91589
97.56667	0.90799
97.53333	0.89994
97.48333	0.88914
97.43333	0.86739
97.43333	0.87690
97.41667	0.88947
97.41667	0.91106
97.40000	0.91911
97.36667	0.91831
97.31667	0.92701
97.26667	0.91895
97.21667	0.90832
97.16667	0.88576
97.11667	0.85467
97.05000	0.82132
96.98333	0.79812
96.93333	0.80037
96.93333	0.82808
96.91667	0.86514
96.91667	0.86659
96.90000	0.85596
96.88333	0.84645
96.86667	0.83759
96.85000	0.82953
96.85000	0.82244
96.83333	0.81535
96.83333	0.80778
96.83333	0.80230
96.81667	0.80134
96.81667	0.80988
96.81667	0.82583
96.81667	0.85644
96.81667	0.90397
96.81667	0.90799
96.81667	0.91976
96.81667	0.91992
96.81667	0.92362
96.81667	0.93103
96.81667	0.92717
96.81667	0.93377
96.81667	0.92684
96.80000	0.91976
96.75000	0.91460
96.65000	0.88592
96.46667	0.84468
96.40000	0.83549
96.38333	0.86449
96.36667	0.89704
96.36667	0.92958
96.36667	0.95327
96.36667	0.95343
96.36667	0.95246
96.36667	0.95955
96.36667	0.95971
96.36667	0.94006
96.35000	0.91718
96.35000	0.90719
96.28333	0.91057
96.15000	0.91686
96.01667	0.92717
95.90000	0.93828
95.78333	0.94328
95.73333	0.93877
95.70000	0.93828
95.68333	0.93893
95.66667	0.95117
95.63333	0.95004
95.61667	0.96100
95.60000	0.96003
95.56667	0.95778
95.51667	0.96680
95.46667	0.97421
95.31667	0.98839
95.11667	0.96777
95.03333	0.95230
95.03333	0.95439
95.03333	0.96616
95.03333	0.98033
95.03333	0.98404
95.03333	0.97953
95.03333	0.98243
95.03333	0.97244
95.05000	0.89784
95.05000	0.86594
95.05000	0.87336
95.05000	0.87239
95.05000	0.83098
95.05000	0.76025
95.05000	0.75075
95.05000	0.73979
95.05000	0.72755
95.05000	0.70789
95.05000	0.63249
95.05000	0.69468
95.05000	0.83646
95.05000	0.79360
95.05000	0.73560
95.05000	0.53083
95.05000	0.21038
95.05000	0.22891
95.06667	0.38245
95.06667	0.68195
95.06667	0.90026
95.06667	0.91283
95.06667	0.93119
95.06667	0.95230
95.06667	0.94811
95.06667	0.95037
95.06667	0.94650
95.06667	0.95697
95.06667	0.90268
95.06667	0.72336
95.06667	0.65827
95.06667	0.65714
95.06667	0.67019
95.06667	0.70370
95.06667	0.72884
95.06667	0.77411
95.06667	0.78748
95.06667	0.68485
95.06667	0.53389
95.06667	0.60978
95.06667	0.71949
95.08333	0.82631
95.08333	0.88624
95.08333	0.92282
95.08333	0.95166
95.08333	0.98372
95.08333	0.98694
95.08333	0.99242
95.08333	0.98936
95.08333	0.99483
95.08333	0.98710
95.08333	0.98452
95.08333	0.97453
95.08333	0.97163
95.08333	0.97904
95.08333	0.89784
95.08333	0.87867
95.08333	0.80537
95.08333	0.71128
95.08333	0.52890
95.06667	0.43803
95.06667	0.10743
95.06667	0.05394
95.06667	0.04782
95.06667	0.08810
95.06667	0.37310
95.06667	0.45430
95.06667	0.21779
95.06667	0.08761
95.06667	0.03300
95.06667	0.01737
95.06667	0.00899
95.06667	0.00577
95.06667	0.00577
95.06667	0.01801
95.06667	0.03928
95.06667	0.05458
95.06667	0.20281
95.06667	0.24663
95.06667	0.12982
95.06667	0.03847
95.06667	0.01817
95.06667	0.00625
95.08333	0.00545
95.08333	0.01398
95.08333	0.03573
95.06667	0.13433
95.06667	0.50199
95.06667	0.63475
95.06667	0.65199
95.06667	0.66101
95.06667	0.68244
95.06667	0.72223
95.05000	0.80102
95.05000	0.84162
95.05000	0.92701
95.05000	0.94731
95.05000	0.96132
95.05000	0.96084
95.05000	0.96696
95.05000	0.97872
95.05000	0.96277
95.05000	0.95182
95.05000	0.94441
95.05000	0.96583
95.05000	0.97647
95.05000	0.97324
95.05000	0.95923
95.03333	0.96358
95.01667	0.96003
94.95000	0.96052
94.88333	0.91428
94.86667	0.83968
94.86667	0.75300
94.85000	0.73125
94.76667	0.75574
94.63333	0.82148
94.50000	0.86304
94.38333	0.89752
94.26667	0.92298
94.15000	0.95568
94.06667	0.96696
94.00000	0.97631
93.88333	0.99564
93.73333	0.99403
93.55000	0.98259
93.40000	0.85273
93.28333	0.75333
93.20000	0.76863
93.10000	0.84919
92.91667	0.97260
92.65000	1.00837
92.33333	0.80698
92.10000	0.60301
91.98333	0.46059
91.91667	0.37391
91.90000	0.42804
91.90000	0.55226
91.90000	0.74430
91.90000	0.88641
91.90000	0.95423
91.90000	0.96728
91.90000	0.95858
91.91667	0.95713
91.91667	0.94102
91.91667	0.86498
91.95000	0.86192
91.98333	0.88206
92.03333	0.89156
92.11667	0.89494
92.16667	0.88093
92.20000	0.85547
92.26667	0.85886
92.33333	0.85628
92.43333	0.88931
92.61667	0.95037
92.80000	1.00547
92.91667	1.03543
92.98333	1.03060
93.03333	1.01964
93.06667	1.00821
93.06667	1.00498
93.08333	1.00579
93.08333	1.00627
93.08333	1.00643
93.10000	1.01320
93.10000	1.01723
93.10000	1.00740
93.11667	1.01336
93.11667	1.01803
93.11667	1.02335
93.13333	1.01964
93.15000	1.02706
93.18333	1.02544
93.20000	1.02013
93.21667	1.02818
93.21667	1.02593
93.23333	1.02577
93.26667	1.02851
93.33333	1.02367
93.45000	1.02544
93.51667	1.02432
93.56667	1.02061
93.61667	1.01513
93.66667	1.00901
93.73333	1.01272
93.80000	1.00305
93.88333	0.97582
93.93333	0.97067
93.96667	0.96809
94.00000	0.96036
94.03333	0.95391
94.08333	0.93861
94.11667	0.93168
94.16667	0.91460
94.21667	0.89043
94.26667	0.85950
94.35000	0.83823
94.41667	0.81503
94.50000	0.78635
94.60000	0.75784
94.70000	0.72723
94.78333	0.77620
94.83333	0.79473
94.86667	0.79135
94.90000	0.78007
94.98333	0.71208
95.08333	0.57030
95.13333	0.46671
95.23333	0.36424
95.31667	0.32622
95.43333	0.32960
95.55000	0.37632
95.63333	0.29851
95.66667	0.29206
95.68333	0.39340
95.70000	0.54018
95.70000	0.77540
95.70000	0.85289
95.70000	0.86031
95.71667	0.85805
95.75000	0.86031
95.81667	0.82115
95.91667	0.78055
96.01667	0.75655
96.11667	0.79683
96.25000	0.83388
96.31667	0.84709
96.33333	0.84726
96.36667	0.84500
96.38333	0.85483
96.40000	0.87658
96.40000	0.90606
96.40000	0.93184
96.40000	0.95246
96.40000	0.95713
96.40000	0.95729
96.40000	0.95536
96.40000	0.95375
96.40000	0.93732
96.40000	0.93877
96.38333	0.89865
96.36667	0.87996
96.35000	0.88898
96.33333	0.89978
96.33333	0.90429
96.31667	0.92475
96.30000	0.90687
96.28333	0.91331
96.25000	0.90977
96.23333	0.90767
96.23333	0.90783
96.21667	0.90590
96.20000	0.92668
96.16667	0.94940
96.13333	0.95971
96.11667	0.96036
96.11667	0.95536
96.11667	0.95907
96.10000	0.95053
96.06667	0.94634
96.00000	0.95085
95.91667	0.95294
95.86667	0.95971
95.76667	0.96132
95.73333	0.96213
95.71667	0.96825
95.71667	0.96567
95.70000	0.96293
95.65000	0.97099
95.58333	0.97260
95.51667	0.98017
95.48333	0.97324
95.45000	0.97373
95.43333	0.97598
95.38333	0.96229
95.33333	0.94940
95.28333	0.93281
95.21667	0.91363
95.16667	0.90123
95.15000	0.89897
95.10000	0.89027
95.06667	0.88206
95.01667	0.85515
94.95000	0.84178
94.90000	0.85112
94.85000	0.88463
94.83333	0.92829
94.81667	0.95004
94.78333	0.96003
94.73333	0.95101
94.65000	0.93152
94.53333	0.92104
94.45000	0.92781
94.41667	0.96406
94.40000	0.99064
94.36667	0.99741
94.35000	0.99789
94.33333	0.99870
94.28333	1.00563
94.18333	0.98936
94.06667	0.96181
93.95000	0.93844
93.85000	0.92024
93.76667	0.90558
93.66667	0.88979
93.58333	0.88093
93.55000	0.88222
93.51667	0.89575
93.48333	0.92056
93.46667	0.95633
93.45000	1.00208
93.43333	1.02689
93.41667	1.03672
93.40000	1.03866
93.36667	1.03495
93.33333	1.03737
93.30000	1.03527
93.25000	1.04526
93.23333	1.03141
93.20000	1.01626
93.18333	0.99258
93.15000	0.97067
93.08333	0.97292
93.00000	1.00224
92.88333	1.02496
92.78333	1.04139
92.70000	1.05122
92.61667	1.05751
92.55000	1.05428
92.46667	1.05461
92.38333	1.04462
92.26667	1.01030
92.18333	0.99918
92.13333	0.99177
92.10000	1.00047
92.08333	1.02432
92.06667	1.05992
92.03333	1.07475
92.00000	1.07555
91.98333	1.07023
91.98333	1.07088
91.96667	1.07910
91.95000	1.08183
91.95000	1.07958
91.90000	1.07813
91.83333	1.08006
91.81667	1.07990
91.80000	1.07201
91.75000	1.06186
91.66667	1.04929
91.55000	1.05138
91.41667	1.06524
91.31667	1.08151
91.18333	1.09521
91.08333	1.10713
90.98333	1.09118
90.90000	1.04059
90.81667	0.98501
90.80000	0.96986
90.80000	0.95053
90.78333	0.92974
90.78333	0.90896
90.76667	0.90767
90.76667	0.91057
90.76667	0.89607
90.75000	0.89559
90.75000	0.88592
90.75000	0.91621
90.76667	0.95166
90.76667	0.97115
90.76667	0.96841
90.76667	0.96809
90.75000	0.95955
90.75000	0.97824
90.75000	1.00353
90.73333	1.03882
90.73333	1.07168
90.71667	1.08151
90.65000	1.07475
90.55000	1.06202
90.45000	1.11760
90.40000	0.26306
90.38333	0.00432
90.36667	0.00077
90.35000	0.00174
90.31667	-0.00309
90.21667	0.00158
90.11667	-0.00035
90.01667	0.28771
89.91667	0.93200
89.83333	1.05074
89.78333	1.11325
89.75000	1.13581
89.73333	1.13436
89.73333	1.13355
89.71667	1.14644
89.70000	1.15482
89.66667	1.15675
89.65000	1.15820
89.61667	1.15337
89.60000	1.14386
89.55000	1.14563
89.48333	1.13983
89.45000	1.14692
89.41667	1.14886
89.38333	1.15707
89.36667	1.16094
89.35000	1.15868
89.33333	1.17093
89.31667	1.16561
89.30000	1.16593
89.26667	1.17012
89.26667	1.16835
89.25000	1.16513
89.23333	1.15675
89.20000	1.16690
89.16667	1.16755
89.11667	1.16900
89.10000	1.17592
89.06667	1.17592
89.05000	1.17093
89.01667	1.16980
88.98333	1.16706
88.95000	1.16867
88.88333	1.18414
88.80000	1.18172
88.71667	1.19493
88.60000	1.18978
88.46667	1.18366
88.36667	1.17028
88.33333	1.16110
88.30000	1.16287
88.28333	1.16610
88.26667	1.16642
88.25000	1.18350
88.23333	1.18752
88.21667	1.18446
88.18333	1.18833
88.15000	1.18156
88.13333	1.19139
88.11667	1.20251
88.08333	1.20460
88.05000	1.20637
88.03333	1.20267
88.01667	1.21169
87.98333	1.20621
87.95000	1.21733
87.90000	1.21330
87.85000	1.21233
87.80000	1.21926
87.71667	1.21636
87.65000	1.20347
87.60000	1.18801
87.53333	1.16255
87.46667	1.13613
87.41667	1.12082
87.40000	1.11696
87.40000	1.12469
87.41667	1.06991
87.41667	0.98871
87.41667	0.81117
87.41667	0.45173
87.43333	0.61413
87.45000	0.83984
87.45000	0.96326
87.45000	1.01272
87.45000	1.12469
87.45000	1.19719
87.45000	1.18994
87.45000	1.14773
87.45000	0.54163
87.45000	0.00480
87.45000	0.00174
87.45000	0.24099
87.45000	0.91492
87.46667	0.95729
87.46667	0.99838
87.46667	1.04123
87.46667	1.05896
87.48333	1.10455
87.48333	1.09037
87.48333	1.10165
87.48333	1.10600
87.48333	1.11390
87.48333	1.11841
87.48333	1.10697
87.48333	1.10777
87.48333	1.08006
87.48333	1.07539
87.48333	1.08151
87.48333	1.10568
87.50000	1.10729
87.48333	1.09263
87.48333	1.10471
87.48333	1.09521
87.48333	1.12388
87.50000	1.18430
87.50000	1.19880
87.50000	1.19526
87.50000	1.20347
87.50000	1.19783
87.50000	1.18881
87.50000	1.17286
87.50000	1.17254
87.50000	1.10439
87.50000	0.99822
87.48333	0.76090
87.48333	0.56450
87.48333	0.74946
87.48333	0.85096
87.48333	0.99516
87.46667	1.05090
87.46667	1.06878
87.46667	1.09730
87.46667	1.12759
87.46667	1.16239
87.45000	1.18156
87.45000	1.18591
87.45000	1.18269
87.43333	1.19091
87.43333	1.20009
87.43333	1.20090
87.43333	1.20267
87.41667	1.19268
87.41667	1.20202
87.40000	1.20976
87.38333	1.21620
87.35000	1.22216
87.31667	1.22861
87.28333	1.23199
87.25000	1.23006
87.20000	1.22651
87.15000	1.23215
87.08333	1.23006
87.01667	1.23892
86.95000	1.23731
86.90000	1.24214
86.85000	1.23650
86.81667	1.23682
86.78333	1.22216
86.75000	1.21846
86.70000	1.23038
86.65000	1.24069
86.56667	1.25487
86.46667	1.24891
86.40000	1.24649
86.35000	1.23554
86.26667	1.22957
86.20000	1.21201
86.15000	1.18897
86.10000	1.16932
86.05000	1.16916
86.00000	1.20492
85.95000	1.22603
85.88333	1.25310
85.83333	1.24987
85.78333	1.24343
85.73333	1.23489
85.65000	1.20782
85.55000	1.18478
85.46667	1.19445
85.41667	1.25052
85.38333	1.29370
85.35000	1.30159
85.33333	1.29950
85.33333	1.29998
85.31667	1.29644
85.30000	1.29257
85.23333	1.30062
85.11667	1.30997
85.00000	1.30256
84.90000	1.30240
84.83333	1.30723
84.80000	1.32125
84.78333	1.31964
84.75000	1.31545
84.65000	1.31674
84.53333	1.31271
84.43333	1.30900
84.40000	1.32125
84.36667	1.31303
84.35000	1.31706
84.31667	1.31303
84.30000	1.31271
84.26667	1.30852
84.23333	1.32125
84.23333	1.32640
84.23333	1.33091
84.23333	1.32463
84.23333	1.32544
84.23333	1.31706
84.23333	1.32270
84.23333	1.30610
84.25000	1.26631
84.25000	1.27098
84.25000	1.27823
84.25000	1.25696
84.23333	1.22458
84.23333	1.26663
84.23333	1.30755
84.23333	1.31206
84.23333	1.31303
84.23333	1.32141
84.23333	1.31432
84.23333	1.24343
84.23333	0.56160
84.25000	0.00335
84.25000	0.33395
84.25000	1.18801
84.25000	1.15901
84.25000	1.18092
84.25000	1.18382
84.25000	1.18930
84.25000	1.20476
84.25000	1.23360
84.25000	1.27678
84.25000	1.27807
84.25000	1.31126
84.25000	1.31706
84.25000	1.31980
84.25000	1.30449
84.25000	1.30594
84.25000	1.29418
84.25000	1.27984
84.25000	1.29402
84.25000	1.30401
84.25000	1.30417
84.23333	1.32044
84.23333	1.32399
84.23333	1.28774
84.23333	1.10858
84.20000	0.91766
84.11667	0.99177
84.08333	1.21556
84.08333	1.31271
84.08333	1.32979
84.08333	1.33043
84.08333	1.30626
84.08333	1.28612
84.08333	1.18865
84.08333	1.11132
84.08333	1.04365
84.08333	1.16658
84.06667	1.32189
84.06667	1.34670
84.05000	1.34509
84.01667	1.34670
83.95000	1.35589
83.81667	1.35734
83.68333	1.36297
83.58333	1.35492
83.45000	1.36813
83.30000	1.37667
83.15000	1.37345
83.03333	1.37312
82.95000	1.37022
82.90000	1.35121
82.81667	1.37103
82.73333	1.36926
82.65000	1.39181
82.55000	1.41002
82.46667	1.42081
82.38333	1.42130
82.28333	1.42565
82.21667	1.43000
82.13333	1.42565
82.10000	1.41211
82.08333	1.43161
82.05000	1.42871
82.05000	1.43451
82.03333	1.42806
82.01667	1.43386
81.98333	1.42951
81.90000	1.42339
81.76667	1.42806
81.56667	1.43773
81.36667	1.41953
81.20000	1.36523
81.11667	1.36120
81.06667	1.40325
81.05000	1.41211
81.05000	1.07217
81.03333	0.93007
81.03333	1.12405
81.00000	1.31835
80.95000	1.41808
80.91667	1.43596
80.91667	1.43966
80.91667	1.46093
80.91667	1.45626
80.91667	1.45787
80.91667	1.44627
80.91667	1.44095
80.91667	1.45723
80.91667	1.42581
80.91667	1.44836
80.91667	1.45046
80.91667	1.10761
80.91667	0.12225
80.91667	0.00029
80.91667	-0.00035
80.93333	-0.00084
80.93333	1.27307
80.93333	1.37087
80.93333	1.37490
80.95000	1.38682
80.95000	1.39455
80.95000	1.40954
80.95000	1.40825
80.95000	1.42291
80.95000	1.43225
80.95000	1.45465
80.95000	1.44740
80.95000	1.44273
80.96667	1.43580
80.96667	1.43531
80.96667	1.42355
80.95000	1.38956
80.95000	1.36974
80.95000	1.34864
80.95000	1.35234
80.95000	1.33542
80.95000	1.35427
80.95000	1.36475
80.95000	1.37409
80.96667	1.33381
80.96667	1.10971
80.96667	0.80810
80.95000	0.65038
80.95000	0.83340
80.95000	0.95923
80.95000	0.94360
80.95000	0.89881
80.95000	0.89494
80.95000	0.83662
80.95000	0.85773
80.95000	0.91686
80.95000	0.97051
80.95000	1.42146
80.95000	1.36652
80.95000	1.35927
80.95000	1.38456
80.95000	1.39278
80.95000	1.39955
80.95000	1.40438
80.93333	1.41324
80.93333	1.42742
80.93333	1.43693
80.91667	1.45110
80.78333	1.46673
80.60000	1.41292
80.36667	1.29257
80.18333	0.96744
80.16667	0.73947
80.16667	0.73915
80.16667	0.82695
80.16667	1.18414
80.16667	1.39923
80.16667	1.48655
80.16667	1.48478
80.16667	1.47656
80.16667	1.47140
80.16667	1.46657
80.16667	1.46689
80.16667	1.46931
80.16667	1.47366
80.15000	1.46270
80.10000	1.46754
79.98333	1.49541
79.83333	1.49267
79.71667	1.46721
79.68333	1.45787
79.68333	1.47817
79.66667	1.49186
79.66667	1.50379
79.66667	1.51088
79.63333	1.51764
79.58333	1.50685
79.43333	1.50040
79.25000	1.51780
79.18333	1.52248
79.13333	1.53714
79.08333	1.54068
79.05000	1.54648
79.00000	1.54906
78.93333	1.54954
78.85000	1.53246
78.76667	1.52441
78.71667	1.51265
78.68333	1.50524
78.66667	1.49847
78.63333	1.49573
78.60000	1.47849
78.56667	1.45884
78.53333	1.44450
78.50000	1.39890
78.43333	1.37200
78.38333	1.36346
78.35000	1.41743
78.31667	1.47092
78.31667	1.49235
78.31667	1.51233
78.30000	1.51442
78.30000	1.50636
78.30000	1.50572
78.26667	1.48574
78.21667	1.47946
78.11667	1.48671
77.98333	1.58418
77.95000	1.58579
77.95000	1.56823
77.93333	1.56646
77.91667	1.57049
77.85000	1.58579
77.78333	1.59530
77.71667	1.59030
77.65000	1.60255
77.60000	1.60110
77.58333	1.49702
77.58333	1.40245
77.58333	1.35025
77.58333	1.35879
77.58333	1.39101
77.56667	1.42694
77.53333	1.47205
77.48333	1.54310
77.46667	1.57790
77.46667	1.59594
77.45000	1.61737
77.45000	1.61141
77.43333	1.60899
77.43333	1.61254
77.43333	1.60625
77.40000	1.60996
77.33333	1.60964
77.26667	1.61367
77.23333	1.62253
77.18333	1.61737
77.10000	1.62156
77.00000	1.64250
76.88333	1.63751
76.73333	1.60368
76.66667	1.56775
76.60000	1.54987
76.56667	1.52795
76.55000	1.53150
76.53333	1.55438
76.53333	1.56662
76.53333	1.57113
76.51667	1.58902
76.51667	1.58644
76.50000	1.58402
76.50000	1.58708
76.50000	1.60593
76.50000	1.61721
76.50000	1.63670
76.50000	1.64653
76.50000	1.64009
76.48333	1.63832
76.46667	1.63219
76.41667	1.63397
76.41667	1.64122
76.41667	1.64911
76.41667	1.65088
76.41667	1.66893
76.41667	1.66715
76.41667	1.67279
76.41667	1.66393
76.40000	1.65217
76.38333	1.66844
76.30000	1.67086
76.20000	1.68182
76.13333	1.68955
76.08333	1.68810
76.05000	1.69438
75.98333	1.69068
75.93333	1.69245
75.85000	1.67183
75.76667	1.63316
75.73333	1.59369
75.70000	1.57532
75.65000	1.55148
75.58333	1.53988
75.51667	1.54439
75.45000	1.58048
75.40000	1.65153
75.40000	1.70759
75.38333	1.72338
75.38333	1.71307
75.36667	1.71194
75.36667	1.71194
75.36667	1.71307
75.36667	1.71227
75.38333	1.71710
75.38333	1.69616
75.38333	1.72016
75.38333	1.70341
75.38333	1.69889
75.38333	1.69390
75.38333	1.69696
75.38333	1.69841
75.38333	1.71211
75.38333	1.72612
75.36667	1.70051
75.36667	1.68971
75.36667	1.69696
75.36667	1.69825
75.36667	1.69599
75.36667	1.70437
75.36667	1.70550
75.36667	1.72242
75.36667	1.71742
75.36667	1.71339
75.36667	1.72258
75.38333	1.72467
75.38333	1.69245
75.38333	1.63574
75.38333	1.52151
75.38333	1.50153
75.38333	1.70598
75.38333	1.71146
75.38333	1.69019
75.38333	1.69326
75.38333	1.71984
75.38333	1.72999
75.38333	1.69148
75.38333	1.70776
75.38333	1.71565
75.38333	1.60803
75.38333	1.53633
75.38333	1.54535
75.38333	1.55309
75.38333	1.57548
75.38333	1.64959
75.38333	1.68165
75.38333	1.71791
75.38333	1.72516
75.38333	1.72628
75.38333	1.68327
75.38333	1.59047
75.38333	1.47865
75.38333	1.40680
75.38333	1.33107
75.38333	1.24971
75.38333	1.34622
75.40000	1.49766
75.40000	1.52940
75.40000	1.53118
75.40000	1.59933
75.40000	1.63364
75.40000	1.68198
75.38333	1.67054
75.38333	1.66989
75.38333	1.66039
75.40000	1.65555
75.40000	1.65153
75.40000	1.66442
75.40000	1.67779
75.40000	1.69744
75.40000	1.67602
75.40000	1.57887
75.40000	1.54842
75.40000	1.51974
75.40000	1.50169
75.40000	1.51990
75.40000	1.55712
75.40000	1.66780
75.40000	1.71678
75.40000	1.72322
75.41667	1.71742
75.41667	1.72419
75.41667	1.71404
75.41667	1.71388
75.41667	1.71484
75.41667	1.72000
75.41667	1.72789
75.41667	1.73096
75.41667	1.70792
75.41667	1.68665
75.41667	1.67295
75.41667	1.67730
75.41667	1.67215
75.41667	1.70115
75.40000	1.70937
75.40000	1.71436
75.40000	1.71613
75.38333	1.71388
75.30000	1.73079
75.05000	1.72338
74.85000	1.60416
74.73333	1.43838
74.71667	1.39552
74.70000	1.42081
74.70000	1.49186
74.70000	1.61963
74.68333	1.69390
74.66667	1.75109
74.61667	1.75851
74.55000	1.75754
74.50000	1.74352
74.46667	1.73740
74.45000	1.73692
74.41667	1.75851
74.36667	1.77945
74.25000	1.77317
74.11667	1.78106
74.05000	1.72338
74.01667	1.68053
74.00000	1.71372
73.96667	1.78348
73.95000	1.80217
73.93333	1.77542
73.86667	1.70743
73.58333	1.63703
73.33333	1.82472
73.26667	1.84196
73.23333	1.79701
73.21667	1.75335
73.18333	1.64009
73.11667	1.54100
73.03333	1.48333
72.85000	1.45094
72.75000	1.48220
72.71667	1.47527
72.70000	1.45803
72.70000	1.37586
72.70000	1.30062
72.68333	1.25664
72.68333	1.23554
72.65000	1.21975
72.60000	1.22555
72.55000	1.34171
72.53333	1.45416
72.50000	1.52650
72.48333	1.53472
72.48333	1.52473
72.48333	1.57790
72.46667	1.59997
72.46667	1.72387
72.46667	1.75786
72.46667	1.77462
72.46667	1.77703
72.46667	1.76108
72.46667	1.74981
72.46667	1.74674
72.46667	1.81602
72.46667	1.87402
72.45000	1.88176
72.45000	1.89513
72.43333	1.89787
72.43333	1.87418
72.41667	1.81103
72.40000	1.73547
72.40000	1.76398
72.40000	1.84825
72.40000	1.86355
72.40000	1.89287
72.40000	1.89400
72.40000	1.87773
72.40000	1.85775
72.40000	1.84873
72.40000	1.80007
72.40000	1.80217
72.40000	1.79298
72.40000	1.82311
72.40000	1.80877
72.40000	1.79459
72.40000	1.79443
72.40000	1.82053
72.40000	1.85405
72.40000	1.87982
72.40000	1.89400
72.40000	1.89384
72.40000	1.89948
72.40000	1.89722
72.38333	1.89658
72.38333	1.89030
72.36667	1.89142
72.36667	1.88095
72.35000	1.87000
72.31667	1.85614
72.26667	1.82617
72.18333	1.84841
72.06667	1.88417
71.86667	1.91623
71.65000	1.88482
71.56667	1.81908
71.51667	1.81473
71.48333	1.86548
71.46667	1.92977
71.46667	1.87741
71.43333	1.80942
71.33333	1.81683
71.15000	1.88788
70.93333	1.96715
70.76667	1.98132
70.68333	1.97794
70.61667	1.95587
70.55000	1.94411
70.50000	1.93589
70.45000	1.92510
70.41667	1.91607
70.41667	1.94411
70.40000	1.98422
70.35000	1.98986
70.30000	2.00710
70.23333	2.01677
70.21667	2.01774
70.16667	2.02837
70.13333	2.02482
70.06667	2.03352
69.95000	2.04335
69.86667	2.04577
69.81667	2.04223
69.78333	2.03820
69.75000	2.02950
69.71667	2.03320
69.70000	1.67457
69.70000	0.81197
69.70000	0.84838
69.70000	1.15192
69.70000	1.78090
69.70000	1.97375
69.70000	1.98455
69.70000	1.99180
69.70000	2.02225
69.70000	2.05189
69.71667	2.04835
69.71667	1.96473
69.71667	1.97246
69.71667	1.98229
69.71667	1.96972
69.71667	2.01194
69.71667	2.04819
69.71667	2.04770
69.71667	2.05286
69.71667	2.03675
69.71667	2.05528
69.71667	2.01306
69.70000	1.89432
69.68333	1.87821
69.63333	1.92010
69.58333	1.91865
69.53333	1.94346
69.45000	2.02885
69.35000	2.06591
69.18333	1.87386
69.05000	1.88997
68.91667	2.00597
68.71667	2.10377
68.56667	2.08347
68.45000	2.02740
68.28333	1.91156
68.13333	1.78074
68.06667	1.82037
68.01667	1.85630
67.95000	1.87290
67.88333	1.90173
67.81667	1.89158
67.73333	1.92058
67.65000	1.96054
67.60000	2.07509
67.56667	2.15919
67.53333	2.19673
67.50000	2.19625
67.45000	2.20221
67.36667	2.20463
67.20000	2.21880
67.03333	2.21204
66.88333	2.20672
66.76667	2.18545
66.65000	2.14775
66.56667	2.13116
66.46667	2.24152
66.36667	2.28035
66.30000	2.27004
66.23333	2.26811
66.18333	2.30307
66.11667	2.31660
66.06667	2.31144
66.01667	2.31773
65.98333	2.31370
65.93333	2.32466
65.88333	2.32788
65.85000	2.32611
65.81667	2.33755
65.78333	2.34463
65.71667	2.34351
65.65000	2.35801
65.53333	2.35172
65.33333	2.36848
65.23333	2.37106
65.15000	2.37798
65.06667	2.38797
65.00000	2.36526
64.93333	2.30339
64.88333	2.20092
64.83333	2.13454
64.76667	2.13213
64.70000	2.19029
64.61667	2.25054
64.50000	2.30210
64.41667	2.33771
64.36667	2.34238
64.30000	2.37895
64.18333	2.41552
64.08333	2.44404
64.00000	2.46128
63.95000	2.46047
63.86667	2.45306
63.78333	2.44195
63.75000	2.44356
63.73333	2.44050
63.73333	2.46917
63.73333	2.32804
63.75000	2.11956
63.75000	2.07815
63.75000	2.06639
63.75000	1.96038
63.75000	0.83292
63.75000	0.10243
63.75000	0.06715
63.75000	0.06296
63.75000	0.05652
63.75000	0.05716
63.75000	0.05523
63.75000	0.06747
63.75000	0.07666
63.75000	0.08036
63.75000	0.09986
63.76667	0.12821
63.76667	0.07682
63.76667	0.12225
63.76667	0.22633
63.76667	1.02851
63.76667	1.89867
63.76667	2.38427
63.76667	2.46853
63.76667	2.48496
63.76667	2.35350
63.76667	2.16403
63.76667	2.18739
63.76667	2.40135
63.76667	2.43115
63.76667	2.38217
63.78333	2.35704
63.78333	2.34045
63.78333	2.33626
63.78333	2.35027
63.78333	2.37911
63.78333	2.38572
63.78333	2.37202
63.78333	2.39973
63.78333	2.40521
63.78333	2.40715
63.76667	2.41633
63.76667	2.39538
63.75000	2.32224
63.63333	2.26601
63.45000	2.12810
63.26667	1.91076
63.15000	2.00694
63.08333	1.95023
63.01667	1.98551
62.96667	1.95104
62.90000	1.85421
62.85000	1.85260
62.81667	1.99615
62.76667	2.11521
62.71667	2.32852
62.66667	2.42664
62.58333	2.41359
62.43333	2.47143
62.25000	2.52524
62.11667	2.49962
62.01667	2.41311
61.93333	2.34931
61.83333	2.25908
61.73333	2.23782
61.61667	2.21752
61.51667	2.37492
61.45000	2.57261
61.38333	2.65123
61.33333	2.66380
61.26667	2.65881
61.20000	2.63834
61.11667	2.62288
61.01667	2.59726
60.93333	2.63963
60.86667	2.68652
60.83333	2.72228
60.80000	2.72647
60.76667	2.73115
60.73333	2.73598
60.70000	2.74420
60.66667	2.73598
60.58333	2.72647
60.50000	2.71004
60.40000	2.65075
60.23333	2.62610
60.08333	2.66944
59.96667	2.68152
59.86667	2.76079
59.81667	2.77303
59.78333	2.78109
59.76667	2.80848
59.75000	2.78898
59.73333	2.72051
59.70000	2.60644
59.68333	2.54441
59.65000	2.49527
59.61667	2.51396
59.56667	2.55827
59.46667	2.65462
59.38333	2.80075
59.30000	2.76063
59.18333	2.29598
59.10000	1.62494
59.05000	1.46657
59.01667	1.53762
59.00000	1.49879
58.98333	1.69197
58.98333	1.84196
58.96667	2.16580
58.95000	2.63109
58.95000	2.83780
58.95000	2.88646
58.93333	2.89355
58.93333	2.89613
58.93333	2.89419
58.91667	2.89468
58.91667	2.89049
58.90000	2.88598
58.85000	2.88227
58.75000	2.87873
58.66667	2.89323
58.56667	2.89983
58.48333	2.91916
58.41667	2.92158
58.38333	2.93302
58.36667	2.93222
58.35000	2.92980
58.30000	2.85424
58.21667	2.48174
58.08333	1.99599
57.96667	1.81457
57.88333	2.04061
57.83333	2.03046
57.78333	1.90061
57.71667	1.99840
57.65000	2.06784
57.60000	2.00742
57.51667	1.81441
57.46667	1.56710
57.43333	1.47495
57.43333	1.52650
57.43333	1.59804
57.43333	1.69487
57.43333	1.73821
57.45000	1.81264
57.45000	1.79121
57.45000	1.65443
57.45000	1.35121
57.45000	0.08262
57.45000	0.00351
57.45000	0.00545
57.45000	0.00496
57.45000	-0.00406
57.45000	0.06441
57.45000	-0.00454
57.45000	0.34829
57.45000	1.67408
57.45000	-0.00116
57.45000	-0.00084
57.46667	2.46337
57.46667	2.81122
57.46667	2.60193
57.46667	0.57127
57.46667	0.01318
57.48333	0.00206
57.48333	0.00190
57.48333	-0.00197
57.50000	0.00045
57.50000	0.00093
57.50000	0.00174
57.50000	0.00319
57.50000	0.00287
57.50000	-0.00116
57.50000	0.00464
57.50000	0.00142
57.50000	-0.00164
57.50000	0.00448
57.50000	0.01914
57.50000	0.13885
57.50000	0.30930
57.50000	0.99499
57.50000	1.02303
57.50000	1.01884
57.50000	1.47382
57.51667	1.79766
57.51667	2.03981
57.55000	2.14904
57.58333	2.41085
57.65000	2.66316
57.70000	2.91224
57.73333	2.99569
57.76667	2.98941
57.81667	2.94478
57.86667	2.88308
57.98333	2.80429
58.13333	2.58163
58.26667	2.29984
58.36667	2.09926
58.43333	2.13454
58.53333	2.23508
58.65000	2.16870
58.80000	1.73917
58.93333	1.01771
59.00000	0.90751
59.06667	0.73625
59.23333	0.53212
59.46667	0.37214
59.70000	0.09486
59.85000	0.11339
59.93333	1.14032
59.98333	2.07606
60.00000	2.40376
60.01667	2.39361
60.06667	2.36365
60.13333	2.35817
60.16667	2.39377
60.18333	2.47465
60.18333	2.49705
60.20000	2.49656
60.26667	2.46724
60.45000	2.33013
60.73333	2.25715
60.98333	2.39442
61.15000	2.60628
61.25000	2.73759
61.35000	2.69683
61.46667	2.65864
61.60000	2.67427
61.80000	2.65800
62.08333	2.48303
62.38333	2.13003
62.66667	1.01449
62.93333	0.05185
63.20000	0.00045
63.45000	0.00045
63.70000	1.00563
64.00000	0.00142
64.20000	-0.00116
64.41667	0.00110
64.60000	0.11468
64.81667	-0.00100
65.05000	0.03090
65.26667	-0.00470
65.46667	0.00222
65.65000	0.11967
65.73333	-0.00132
65.80000	0.03718
65.86667	-0.00342
65.90000	0.07070
65.90000	-0.00229
65.90000	0.07617
65.90000	-0.00390
65.90000	0.06699
65.90000	-0.00035
65.90000	0.07118
65.88333	-0.00535
65.88333	0.06586
65.86667	-0.00277
65.85000	0.06957
65.83333	-0.00197
65.83333	0.00287
65.83333	0.12370
65.83333	-0.00390
65.83333	0.03122
65.83333	-0.00422
65.83333	0.00367
65.83333	0.96503
65.85000	-0.00003
65.85000	0.92846
65.85000	0.00545
65.85000	0.10582
65.85000	-0.00229
65.85000	0.37697
65.85000	-0.00164
65.83333	0.36392
65.81667	-0.00068
65.80000	0.70193
65.78333	0.00238
65.78333	1.01546
65.75000	0.00931
65.68333	0.29512
65.60000	-0.00068
65.58333	0.21860
65.56667	1.88885
65.56667	1.97053
65.56667	1.98326
65.56667	1.89626
65.56667	1.81747
65.56667	1.72145
65.56667	1.49460
65.55000	1.20670
65.50000	0.65247
65.46667	0.60575
65.43333	0.48604
65.40000	0.38937
65.38333	0.58400
65.38333	0.64329
65.38333	1.12469
65.38333	2.20124
65.38333	2.25377
65.38333	2.20994
65.38333	2.19979
65.38333	2.18707
65.38333	2.17708
65.38333	2.22364
65.36667	2.24636
65.26667	2.32820
65.10000	2.36236
64.98333	2.36123
64.93333	2.37960
64.90000	2.37670
64.83333	2.30001
64.66667	2.29839
64.33333	2.40924
64.00000	2.41069
63.86667	2.39990
63.83333	2.37202
63.81667	2.23330
63.78333	2.22863
63.66667	2.29308
63.55000	2.39136
63.38333	2.47755
63.20000	2.51332
62.98333	2.46611
62.83333	2.37170
62.66667	2.22992
62.48333	1.91398
62.30000	1.61769
62.11667	1.51651
61.90000	1.55486
61.65000	1.76447
61.48333	2.08653
61.40000	2.50075
61.35000	2.64285
61.31667	2.68297
61.28333	2.69135
61.25000	2.69377
61.23333	2.69409
61.21667	2.69409
61.16667	2.70166
61.05000	2.70069
60.90000	2.66589
60.76667	2.62545
60.61667	2.65719
60.55000	2.76321
60.53333	2.71246
60.50000	2.63077
60.46667	2.64012
60.41667	2.66219
60.30000	2.72486
60.06667	2.79785
59.75000	2.68700
59.48333	2.29131
59.38333	2.00340
59.33333	2.02176
59.26667	2.40618
59.16667	2.81041
59.08333	2.89435
59.05000	2.88726
59.01667	2.89967
58.96667	2.91046
58.90000	2.90789
58.81667	2.87953
58.71667	2.82926
58.61667	2.76836
58.50000	2.81557
58.31667	2.79188
58.15000	2.68764
58.01667	2.48577
57.90000	2.28744
57.83333	2.10023
57.78333	1.94572
57.75000	1.78026
57.71667	1.63107
57.68333	1.59304
57.66667	1.56211
57.66667	1.56018
57.66667	1.52956
57.66667	1.39681
57.66667	1.20976
57.66667	1.15804
57.66667	1.08071
57.66667	1.06153
57.66667	0.98194
57.66667	0.75397
57.65000	0.55903
57.61667	0.39389
57.51667	0.18492
57.38333	0.07843
57.28333	0.03799
57.20000	0.02349
57.13333	0.01753
57.05000	0.01237
56.96667	0.00786
56.93333	0.00029
56.93333	0.00722
56.91667	0.00947
56.91667	0.01125
56.91667	0.02236
56.91667	0.18347
56.91667	0.40533
56.90000	0.56950
56.90000	0.65908
56.90000	0.73899
56.90000	1.26615
56.91667	1.71726
56.91667	2.12165
56.91667	2.49640
56.91667	2.67073
56.91667	2.87824
56.91667	3.06916
56.91667	3.10461
56.91667	3.04790
56.91667	3.04403
56.91667	3.07609
56.91667	3.09075
56.91667	3.11315
56.91667	3.10364
56.91667	3.11653
56.91667	3.02099
56.91667	2.76450
56.91667	2.74194
56.91667	2.74113
56.91667	2.75435
56.90000	2.78302
56.90000	2.88871
56.88333	3.01922
56.86667	3.08511
56.86667	3.09897
56.86667	3.10445
56.86667	3.11669
56.88333	3.11589
56.88333	3.11427
56.88333	3.02163
56.90000	2.98570
56.93333	3.00713
56.96667	2.98748
57.01667	3.00488
57.06667	3.02212
57.13333	3.01664
57.26667	3.03726
57.40000	3.04967
57.55000	2.93882
57.66667	2.77980
57.75000	2.67604
57.83333	2.54474
57.88333	2.41166
57.91667	2.53813
57.95000	2.65107
57.98333	2.76111
58.01667	2.84231
58.05000	2.95606
58.06667	2.96492
58.08333	2.94285
58.10000	2.93544
58.13333	2.92593
58.20000	2.91336
58.26667	2.93125
58.36667	2.93238
58.46667	2.91224
58.58333	2.89725
58.65000	2.90176
58.76667	2.72518
58.88333	2.69538
58.96667	2.80268
59.10000	2.86519
59.21667	2.80284
59.31667	2.67363
59.41667	2.47240
59.50000	2.09201
59.61667	1.43386
59.75000	0.63781
59.88333	0.10501
59.96667	0.03944
60.00000	0.03171
60.01667	0.06135
60.00000	0.27950
60.00000	0.89543
60.00000	1.18656
59.98333	1.32527
59.98333	1.35927
59.98333	1.37006
59.96667	0.79022
59.96667	0.50747
59.95000	0.43191
59.88333	0.80069
59.81667	1.10729
59.76667	1.40229
59.70000	1.76930
59.63333	2.10812
59.53333	2.36123
59.40000	2.52846
59.26667	2.64946
59.11667	2.77030
58.98333	2.85456
58.85000	2.89919
58.71667	2.91852
58.55000	2.90499
58.45000	2.87148
58.31667	2.75966
58.25000	2.67202
58.18333	2.60934
58.13333	2.54844
58.10000	2.52653
58.05000	2.45226
58.00000	2.39973
57.98333	2.42342
57.96667	2.43792
57.96667	2.50156
57.96667	2.55827
57.96667	2.63899
57.96667	2.67749
57.96667	2.71536
57.96667	2.71681
57.96667	2.69393
57.96667	2.69151
57.96667	2.66573
57.96667	2.65993
57.96667	2.60886
57.96667	2.60483
57.96667	2.61853
57.96667	2.67701
57.96667	2.84231
57.96667	2.90708
57.96667	2.90740
57.96667	2.90595
57.96667	2.92464
57.96667	2.93979
57.96667	2.95590
57.96667	2.98941
57.96667	2.98474
57.96667	2.96476
57.96667	2.93189
57.95000	2.92738
57.93333	2.97668
57.80000	3.02051
57.58333	3.01293
57.45000	2.95590
57.36667	2.93383
57.26667	2.91804
57.18333	2.82894
57.11667	2.73968
57.05000	2.59645
56.98333	2.42938
56.93333	2.25344
56.86667	2.00001
56.81667	1.84357
56.73333	1.62124
56.61667	1.19945
56.53333	0.80375
56.40000	0.46687
56.36667	0.55725
56.36667	0.66520
56.35000	0.68276
56.35000	0.68598
56.33333	0.74108
56.33333	0.90026
56.33333	1.59852
56.31667	2.25908
56.31667	2.22428
56.30000	1.69261
56.28333	1.21717
56.25000	0.67889
56.18333	0.33782
56.10000	0.13288
55.98333	0.05136
55.85000	0.02478
55.71667	0.01060
55.58333	0.01012
55.45000	0.00722
55.35000	0.01012
55.30000	0.00657
55.28333	0.00851
55.28333	0.01028
55.28333	0.01205
55.28333	0.01721
55.28333	0.01769
55.28333	0.03058
55.28333	0.02703
55.26667	0.02816
55.26667	0.10936
55.26667	0.29416
55.26667	0.51971
55.26667	0.44673
55.26667	0.42160
55.26667	0.43594
55.26667	0.45736
55.26667	0.77717
55.26667	1.05767
55.26667	1.08457
55.26667	0.97582
55.26667	0.56354
55.26667	0.11307
55.26667	0.11258
55.26667	0.15705
55.28333	0.33766
55.28333	0.93538
55.28333	1.19123
55.28333	1.38295
55.28333	1.14805
55.28333	0.88238
55.28333	0.74285
55.28333	0.76831
55.28333	0.86240
55.28333	0.83308
55.28333	0.69178
55.28333	0.52036
55.28333	0.11162
55.28333	0.04524
55.28333	0.08085
55.28333	1.04284
55.28333	2.20962
55.28333	2.82234
55.28333	2.88630
55.30000	3.00617
55.30000	3.09526
55.30000	3.20224
55.30000	3.23849
55.30000	3.24429
55.30000	3.18951
55.30000	3.20095
55.30000	3.25106
55.28333	3.25557
55.28333	3.23833
55.28333	3.23769
55.28333	3.24091
55.26667	3.23559
55.26667	3.23269
55.20000	3.15069
55.11667	2.98861
55.03333	2.92658
54.96667	2.87728
54.90000	2.87856
54.81667	2.88710
54.75000	2.95348
54.68333	3.01068
54.61667	3.03017
54.50000	2.97555
54.38333	2.89564
54.26667	2.76385
54.10000	2.49012
53.93333	1.93299
53.78333	0.94553
53.65000	0.49120
53.56667	0.40339
53.50000	0.72948
53.41667	1.31190
53.36667	1.86677
53.35000	2.74758
53.35000	3.14215
53.35000	3.28119
53.35000	3.39655
53.35000	3.41169
53.36667	3.42539
53.36667	3.38060
53.36667	3.03146
53.36667	2.22573
53.36667	1.73482
53.38333	1.91511
53.38333	2.70762
53.40000	3.17743
53.41667	3.34451
53.43333	3.36287
53.43333	3.37464
53.43333	3.38930
53.43333	3.37141
53.43333	3.36803
53.43333	3.36255
53.45000	3.35723
53.45000	3.36448
53.45000	3.35595
53.45000	3.38237
53.45000	3.40492
53.46667	3.40074
53.46667	3.40654
53.48333	3.38044
53.48333	3.28119
53.48333	3.27168
53.48333	3.29037
53.48333	3.30487
53.48333	3.28715
53.48333	3.30906
53.48333	3.27619
53.48333	3.24123
53.48333	3.14327
53.46667	2.97926
53.46667	2.89097
53.45000	2.82572
53.45000	2.68716
53.45000	2.61192
53.43333	2.62094
53.41667	2.61595
53.40000	2.56004
53.36667	2.50736
53.33333	2.45919
53.26667	2.40135
53.16667	2.20205
53.08333	1.95732
53.01667	1.55196
52.95000	1.06669
52.86667	0.47783
52.80000	0.20506
52.70000	0.07811
52.58333	0.03912
52.51667	0.04830
52.48333	0.26419
52.48333	2.01081
52.48333	2.59597
52.48333	3.02631
52.48333	3.34741
52.48333	3.42120
52.48333	3.45745
52.48333	3.48403
52.48333	3.49612
52.48333	3.48919
52.45000	3.47050
52.25000	3.37254
52.01667	3.00021
51.95000	2.66348
51.88333	2.65284
51.83333	2.64801
51.80000	2.90934
51.80000	3.44424
51.80000	3.54896
51.80000	3.55106
51.80000	3.55605
51.80000	3.54493
51.78333	3.53833
51.76667	3.52431
51.73333	3.53124
51.70000	3.55057
51.65000	3.54010
51.58333	3.55573
51.55000	3.58086
51.51667	3.51303
51.50000	3.45133
51.48333	3.54993
51.45000	3.60165
51.38333	3.62082
51.31667	3.63306
51.25000	3.62227
51.18333	3.60664
51.13333	3.59472
51.06667	3.56137
51.00000	3.51045
50.88333	3.36191
50.80000	3.20772
50.71667	3.10026
50.61667	3.01616
50.55000	3.01777
50.46667	3.30020
50.45000	3.68172
50.45000	3.74762
50.43333	3.74923
50.43333	3.74037
50.41667	3.76163
50.40000	3.75744
50.35000	3.75100
50.28333	3.72732
50.20000	3.73070
50.13333	3.73295
50.08333	3.77597
50.05000	3.78757
50.01667	3.73876
49.96667	3.71120
49.88333	3.66786
49.81667	3.65079
49.76667	3.64241
49.70000	3.64611
49.66667	3.76179
49.65000	3.76969
49.65000	3.79933
49.65000	3.78387
49.65000	3.50562
49.66667	3.12297
49.66667	3.10122
49.66667	3.06497
49.65000	3.19370
49.63333	3.30648
49.58333	3.49918
49.53333	3.58570
49.46667	3.67818
49.43333	3.73344
49.41667	3.75599
49.38333	3.81899
49.36667	3.82318
49.35000	3.82511
49.33333	3.83397
49.33333	3.84203
49.31667	3.81255
49.31667	3.81593
49.31667	3.82237
49.30000	3.82399
49.30000	3.82576
49.30000	3.82882
49.30000	3.84557
49.28333	3.83768
49.28333	3.84574
49.28333	3.83784
49.28333	3.83027
49.25000	3.82672
49.20000	3.81819
49.08333	3.80433
49.00000	3.76872
48.93333	3.72941
48.88333	3.71781
48.83333	3.74568
48.81667	3.84928
48.80000	3.86620
48.78333	3.88279
48.78333	3.88537
48.75000	3.87441
48.70000	3.86120
48.60000	3.79353
48.43333	3.64112
48.28333	3.41201
48.18333	3.15842
48.13333	2.93608
48.08333	2.84924
48.06667	2.91240
48.05000	2.93463
48.05000	3.17421
48.05000	3.48661
48.03333	3.51319
48.01667	3.64402
48.01667	3.65546
47.96667	3.55959
47.90000	2.96283
47.85000	2.16725
47.78333	1.11518
47.70000	0.28949
47.65000	0.07714
47.61667	0.05378
47.55000	0.04137
47.43333	0.02768
47.35000	0.02720
47.26667	0.02252
47.23333	0.01962
47.23333	0.02945
47.23333	0.07505
47.23333	0.29239
47.23333	0.62621
47.23333	0.82454
47.23333	1.39971
47.23333	2.05995
47.23333	2.27278
47.23333	2.03691
47.23333	1.70953
47.23333	1.49493
47.23333	2.08138
47.25000	3.77807
47.25000	4.03102
47.25000	4.01507
47.25000	4.02764
47.25000	4.05503
47.25000	4.07291
47.25000	4.07742
47.26667	4.02892
47.26667	3.96077
47.26667	3.89810
47.26667	3.66223
47.26667	3.72152
47.26667	3.70170
47.26667	3.56298
47.26667	2.33610
47.26667	0.94908
47.26667	0.05845
47.26667	0.05475
47.26667	0.32799
47.28333	2.12729
47.28333	3.29198
47.28333	3.71330
47.30000	3.82769
47.30000	3.88634
47.31667	3.79805
47.33333	3.89987
47.35000	3.79917
47.38333	3.75052
47.48333	3.45100
47.53333	3.35627
47.51667	2.73743
47.51667	3.46679
47.51667	3.42361
47.53333	3.47147
47.53333	3.65304
47.53333	3.80401
47.53333	3.92935
47.53333	3.99042
47.53333	4.01072
47.55000	3.92710
47.55000	3.81013
47.55000	3.70363
47.55000	3.70605
47.55000	3.79273
47.55000	4.00846
47.53333	4.07581
47.53333	3.98285
47.53333	3.88553
47.53333	3.68849
47.53333	3.51803
47.51667	3.42603
47.51667	3.30052
47.51667	3.22432
47.51667	3.23302
47.48333	3.37609
47.45000	3.47292
47.40000	3.57361
47.36667	3.66255
47.33333	3.68526
47.30000	3.75825
47.26667	3.81400
47.21667	3.85299
47.13333	3.92275
47.05000	4.00588
46.95000	4.07742
46.83333	4.13220
46.75000	4.15234
46.65000	4.16007
46.58333	4.15508
46.50000	4.14171
46.40000	4.13929
46.28333	4.11673
46.15000	4.07323
46.13333	4.07081
46.13333	4.08338
46.13333	4.06228
46.13333	4.06534
46.11667	4.08467
46.05000	4.06679
45.95000	4.06115
45.88333	4.08274
45.83333	4.14654
45.80000	4.21034
45.78333	4.26206
45.76667	4.26351
45.75000	4.22661
45.71667	4.18956
45.70000	4.16523
45.65000	4.12576
45.60000	4.07178
45.53333	3.97833
45.46667	3.88746
45.38333	3.82930
45.33333	3.84074
45.26667	3.80642
45.23333	3.78951
45.20000	3.72039
45.16667	3.66593
45.13333	3.66400
45.11667	3.69042
45.10000	3.76453
45.08333	3.80256
45.06667	3.82495
45.05000	3.82592
45.01667	3.85009
45.00000	3.84106
44.96667	3.89230
44.93333	3.88682
44.90000	3.95111
44.85000	4.03746
44.80000	4.14348
44.78333	4.18956
44.75000	4.20132
44.71667	4.21920
44.68333	4.24933
44.66667	4.26496
44.65000	4.28252
44.63333	4.26915
44.61667	4.29348
44.60000	4.31201
44.56667	4.31023
44.51667	4.31781
44.50000	4.31458
44.48333	4.31781
44.48333	4.31491
44.50000	4.31636
44.50000	4.29058
44.50000	4.14815
44.50000	3.97253
44.50000	4.03021
44.50000	4.19584
44.50000	4.24965
44.50000	4.31184
44.51667	4.31426
44.51667	4.31088
44.51667	4.31958
44.51667	4.31668
44.51667	4.32038
44.51667	4.27672
44.51667	4.18666
44.51667	4.22597
44.51667	4.28027
44.51667	4.30331
44.51667	4.31668
44.51667	4.31491
44.50000	4.31716
44.50000	4.31652
44.48333	4.31732
44.48333	4.32183
44.48333	4.31313
44.45000	4.31313
44.36667	4.30927
44.25000	4.31378
44.16667	4.31619
44.05000	4.31781
43.85000	4.32183
43.76667	4.32071
43.71667	4.32216
43.68333	4.31861
43.66667	4.32135
43.63333	4.31329
43.58333	4.32183
43.50000	4.31136
43.38333	4.31748
43.26667	4.32135
43.18333	4.31877
43.11667	4.31684
43.05000	4.31910
42.88333	4.31974
42.78333	4.31619
42.66667	4.32119
42.58333	4.31684
42.48333	4.31781
42.41667	4.31684
42.35000	4.31523
42.25000	4.27108
42.10000	3.85540
42.00000	3.69380
41.93333	3.48516
41.88333	3.52673
41.86667	3.68446
41.86667	3.71072
41.85000	3.75293
41.85000	3.74004
41.83333	3.71942
41.83333	3.67592
41.81667	3.67624
41.80000	3.63967
41.80000	3.55686
41.76667	3.45938
41.73333	3.44005
41.68333	3.57716
41.58333	3.98720
41.53333	4.30508
41.48333	4.31748
41.41667	4.31603
41.35000	4.31845
41.26667	4.31587
41.23333	4.31748
41.18333	4.31539
41.13333	4.31426
41.11667	4.31813
41.08333	4.31491
41.06667	4.31442
41.05000	4.31636
41.03333	4.31829
41.01667	4.31910
40.98333	4.31571
40.95000	4.31297
40.90000	4.31442
40.85000	4.31088
40.78333	4.31781
40.71667	4.31603
40.66667	4.31555
40.61667	4.31990
40.58333	4.32119
40.53333	4.32135
40.50000	4.31845
40.50000	4.32248
40.48333	4.31233
40.46667	4.31426
40.43333	4.31684
40.40000	4.31555
40.38333	4.31329
40.33333	4.31748
40.28333	4.31265
40.23333	4.31942
40.18333	4.31861
40.11667	4.31636
40.03333	4.31619
39.98333	4.31523
39.95000	4.31926
39.91667	4.31587
39.90000	4.31813
39.88333	4.32006
39.86667	4.32248
39.86667	4.32248
39.86667	4.31926
39.86667	4.31378
39.86667	4.31748
39.86667	4.31732
39.86667	4.31249
39.86667	4.31668
39.86667	4.31249
39.86667	4.32006
39.86667	4.31458
39.86667	4.32232
39.86667	4.32183
39.86667	4.31732
39.86667	4.31362
39.86667	4.32216
39.88333	4.32071
39.88333	4.31797
39.90000	4.31765
39.90000	4.31797
39.90000	4.31684
39.90000	4.32264
39.90000	4.31619
39.91667	4.31990
39.95000	4.31910
40.00000	4.32345
40.01667	4.32071
40.01667	4.31893
40.01667	4.32312
40.01667	4.31636
40.01667	4.31958
40.01667	4.31974
40.01667	4.31523
40.01667	4.31362
40.01667	4.32087
40.01667	4.31748
40.01667	4.31362
40.01667	4.31829
40.01667	4.30975
40.01667	4.18875
40.01667	4.15153
40.01667	4.27350
40.01667	4.29267
40.01667	4.20229
40.01667	4.14171
40.00000	4.10578
40.00000	4.13864
40.00000	4.19455
40.00000	4.14799
39.98333	4.13913
39.98333	4.13188
39.96667	4.07533
39.95000	4.07259
39.95000	4.10545
39.93333	4.22629
39.93333	4.31603
39.91667	4.31491
39.91667	4.32022
39.88333	4.31120
39.85000	4.31539
39.81667	4.31926
39.73333	4.31684
39.68333	4.31813
39.61667	4.32183
39.51667	4.31426
39.41667	4.32006
39.26667	4.29299
39.13333	3.91969
39.00000	3.53188
38.86667	2.99231
38.76667	2.55118
38.61667	2.10860
38.45000	1.47060
38.26667	0.85048
38.16667	0.44915
38.06667	0.25388
37.93333	0.12499
37.81667	0.07827
37.68333	0.05974
37.50000	0.04057
37.30000	0.02736
37.18333	0.02607
37.18333	0.02333
37.18333	0.02430
37.16667	0.02671
37.16667	0.02768
37.16667	0.03493
37.15000	0.03300
37.15000	0.02961
37.15000	0.02881
37.16667	0.03396
37.16667	0.05136
37.16667	0.04363
37.18333	0.01785
37.18333	0.00867
37.18333	-0.00132
37.18333	-0.00019
37.18333	0.00061
37.20000	0.00142
37.20000	0.00287
37.20000	0.00190
37.20000	1.03173
37.20000	0.00706
37.21667	-0.00438
37.21667	0.00222
37.21667	0.00625
37.23333	-0.00052
37.23333	-0.00052
37.23333	3.10187
37.25000	3.41894
37.25000	3.58972
37.25000	3.72635
37.26667	3.63564
37.26667	0.64023
37.26667	0.04556
37.26667	0.02301
37.26667	0.00883
37.26667	0.01060
37.26667	0.00931
37.26667	0.02800
37.26667	0.09905
37.26667	0.92443
37.26667	2.96218
37.26667	3.55009
37.26667	3.56088
37.26667	3.56072
37.26667	3.59488
37.26667	3.56411
37.26667	3.62404
37.26667	3.65272
37.26667	3.61695
37.28333	3.51223
37.28333	3.42104
37.28333	3.37947
37.28333	3.16696
37.28333	2.98732
37.28333	2.91256
37.28333	3.00085
37.28333	3.12829
37.30000	3.29682
37.30000	3.38640
37.30000	3.35337
37.30000	3.09848
37.28333	3.01438
37.28333	2.94349
37.26667	3.00456
37.25000	3.01535
37.21667	2.95123
37.15000	2.93544
36.90000	2.55005
36.50000	1.74014
36.30000	1.19058
36.21667	1.00659
36.16667	0.91911
36.10000	0.81036
36.01667	0.62895
35.95000	0.48379
35.91667	0.44077
35.90000	0.42595
35.90000	0.43062
35.90000	0.42901
35.90000	0.42514
35.85000	0.38712
35.76667	0.24325
35.66667	0.15705
35.58333	0.11162
35.50000	0.11967
35.40000	0.19620
35.25000	0.19604
35.13333	0.14110
35.00000	0.09970
34.91667	0.09873
34.90000	0.35039
34.90000	0.66133
34.90000	0.79119
34.90000	0.77330
34.90000	0.77975
34.91667	0.70934
34.91667	0.50473
34.91667	0.27772
34.91667	0.10405
34.91667	0.05893
34.91667	0.02736
34.91667	-0.00374
34.91667	-0.00309
34.93333	0.00319
34.93333	-0.00116
34.93333	0.00287
34.93333	-0.00229
34.93333	0.00657
34.93333	1.64122
34.93333	0.55129
34.93333	0.09245
34.93333	0.02011
34.93333	0.00029
34.93333	0.00657
34.93333	0.06812
34.93333	0.84484
34.93333	1.23038
34.93333	0.74382
34.93333	0.53486
34.93333	0.76670
34.93333	1.27597
34.93333	1.66764
34.93333	1.27726
34.93333	0.71047
34.95000	0.53566
34.95000	0.65763
34.95000	0.96132
34.95000	1.32495
34.93333	1.61060
34.93333	1.64218
34.93333	1.65265
34.95000	1.66780
34.95000	1.65475
34.95000	1.61769
34.95000	1.57274
34.95000	1.46077
34.95000	1.45304
34.95000	1.29869
34.95000	0.98839
34.95000	0.65827
34.95000	0.47750
34.95000	0.47815
34.95000	0.46236
34.95000	0.47928
34.95000	0.47992
34.93333	0.54469
34.93333	0.64393
34.93333	0.82293
34.93333	0.81342
34.91667	0.89317
34.91667	0.91621
34.81667	0.82325
34.56667	0.54614
34.31667	0.29045
34.20000	0.18444
34.16667	0.18444
34.15000	0.16688
34.10000	0.15899
34.06667	0.17477
33.98333	0.15238
33.88333	0.13466
33.81667	0.11806
33.80000	0.11194
33.80000	0.10759
33.80000	0.10324
33.80000	0.09744
33.80000	0.07521
33.81667	0.06055
33.81667	0.04363
33.81667	0.03445
33.81667	0.02075
33.81667	0.01866
33.81667	0.01817
33.81667	0.01092
33.81667	0.00609
33.81667	0.00706
33.81667	0.00851
33.81667	0.00335
33.83333	0.00883
33.83333	0.01205
33.85000	0.01769
33.85000	0.01511
33.85000	0.02816
33.86667	0.05265
33.86667	0.09003
33.86667	0.12612
33.86667	0.22939
33.86667	0.34861
33.86667	0.49941
33.88333	0.57771
33.88333	0.45962
33.88333	0.29722
33.88333	0.26451
33.88333	0.25017
33.88333	0.22955
33.88333	0.19427
33.88333	0.15286
33.88333	0.16092
33.88333	0.17784
33.88333	0.30334
33.88333	0.59205
33.88333	1.12501
33.88333	0.28127
33.88333	0.17896
33.88333	0.13353
33.88333	0.10195
33.88333	0.16189
33.88333	0.98033
33.88333	0.56708
33.88333	0.25034
33.88333	0.12257
33.88333	0.12676
33.88333	0.10066
33.88333	0.08068
33.88333	0.10227
33.88333	0.14626
33.88333	0.19040
33.88333	0.23890
33.88333	0.25710
33.90000	0.25001
33.90000	0.15899
33.90000	0.15383
33.90000	0.14497
33.90000	0.12741
33.90000	0.13852
33.90000	0.12982
33.90000	0.13691
33.90000	0.14755
33.88333	0.13723
33.88333	0.12499
33.86667	0.12982
33.83333	0.12725
33.81667	0.12338
33.80000	0.11275
33.65000	0.09277
33.48333	0.05700
33.35000	0.04153
33.26667	0.03686
33.20000	0.02929
33.16667	0.02639
33.13333	0.03412
33.10000	0.02510
33.03333	0.03203
32.96667	0.03090
32.85000	0.03863
32.66667	0.05120
32.55000	0.07505
32.51667	0.09438
32.48333	0.11242
32.46667	0.13885
32.41667	0.18331
32.38333	0.25356
32.33333	0.34314
32.28333	0.54726
32.18333	0.96551
32.05000	1.86291
31.88333	2.87792
31.63333	4.29654
31.51667	4.30395
31.43333	4.30282
31.36667	4.29638
31.35000	4.30298
31.33333	4.29992
31.33333	4.29976
31.33333	4.30459
31.33333	4.30653
31.33333	4.30685
31.33333	4.30524
31.33333	4.30637
31.33333	4.30540
31.33333	4.31007
31.33333	4.30153
31.33333	4.30395
31.33333	4.31346
31.33333	4.31056
31.33333	4.30782
31.33333	4.31184
31.33333	4.31104
31.35000	4.30701
31.35000	4.31039
31.26667	4.31120
31.08333	4.31152
30.78333	4.31619
30.48333	4.30798
30.33333	4.31426
30.25000	4.30604
30.20000	4.30846
30.18333	4.31668
30.18333	4.31265
30.16667	4.31072
30.11667	4.31426
30.05000	4.31072
29.88333	4.30701
29.61667	4.31458
29.33333	4.31491
29.11667	4.31491
28.88333	2.88517
28.75000	1.25036
28.66667	0.49941
28.60000	0.26709
28.56667	0.20571
28.55000	0.17252
28.53333	0.14271
28.53333	0.13804
28.51667	0.12757
28.51667	0.12918
28.51667	0.12467
28.51667	0.13450
28.51667	0.14336
28.53333	0.15174
28.53333	0.15641
28.53333	0.15802
28.53333	0.16253
28.53333	0.16688
28.53333	0.17091
28.53333	0.18589
28.55000	0.20748
28.55000	0.23358
28.55000	0.24309
28.55000	0.22730
28.55000	0.23052
28.55000	0.21554
28.55000	0.17848
28.55000	0.17767
28.56667	0.18799
28.56667	0.18847
28.56667	0.18476
28.58333	0.18541
28.60000	0.21699
28.60000	0.16430
28.60000	0.08197
28.60000	0.05072
28.61667	0.05088
28.61667	0.04073
28.61667	0.03203
28.61667	0.01866
28.61667	0.03396
28.61667	0.27273
28.61667	0.43658
28.61667	0.46671
28.61667	0.47493
28.61667	0.47396
28.61667	0.48137
28.61667	0.48443
28.61667	0.46542
28.61667	0.46510
28.60000	0.41499
28.60000	0.44512
28.60000	0.44721
28.60000	0.43497
28.58333	0.44915
28.58333	0.42981
28.58333	0.43094
28.58333	0.44770
28.58333	0.44802
28.58333	0.44625
28.58333	0.44174
28.58333	0.44319
28.58333	0.44995
28.58333	0.44512
28.58333	0.45156
28.58333	0.45060
28.58333	0.45511
28.58333	0.45527
28.58333	0.45350
28.58333	0.45269
28.58333	0.45543
28.58333	0.45237
28.58333	0.44786
28.58333	0.45124
28.58333	0.45285
28.58333	0.45398
28.58333	0.45527
28.58333	0.45044
28.58333	0.45688
28.58333	0.45656
28.58333	0.45656
28.58333	0.45495
28.58333	0.45898
28.58333	0.45753
28.58333	0.45156
28.58333	0.45575
28.58333	0.45140
28.58333	0.45301
28.58333	0.45334
28.58333	0.44947
28.58333	0.45011
28.58333	0.44834
28.58333	0.45011
28.58333	0.45591
28.58333	0.45318
28.58333	0.45608
28.58333	0.45914
28.58333	0.45591
28.58333	0.45720
28.58333	0.45366
28.58333	0.45527
28.58333	0.45189
28.58333	0.45285
28.58333	0.45543
28.58333	0.45898
28.58333	0.45398
28.58333	0.45914
28.58333	0.45720
28.58333	0.45608
28.58333	0.46139
28.58333	0.46236
28.58333	0.45914
28.58333	0.45785
28.58333	0.46059
28.58333	0.45881
28.58333	0.45801
28.58333	0.46268
28.58333	0.46236
28.58333	0.46333
28.58333	0.45446
28.58333	0.46300
28.58333	0.45350
28.58333	0.45559
28.58333	0.46026
28.58333	0.46236
28.58333	0.46059
28.58333	0.45640
28.58333	0.45575
28.58333	0.46123
28.58333	0.46220
28.58333	0.45994
28.58333	0.46236
28.58333	0.45849
28.58333	0.46478
28.58333	0.46896
28.58333	0.46252
28.58333	0.46236
28.58333	0.45672
28.58333	0.45881
28.58333	0.45785
28.58333	0.45978
28.58333	0.46461
28.58333	0.45978
28.58333	0.45865
28.58333	0.46558
28.58333	0.46494
28.58333	0.46349
28.58333	0.46478
28.58333	0.45865
28.58333	0.46445
28.58333	0.46478
28.58333	0.46123
28.58333	0.46510
28.58333	0.46397
28.58333	0.46494
28.58333	0.46333
28.58333	0.46043
28.58333	0.46316
28.58333	0.46010
28.58333	0.46365
28.58333	0.46010
28.58333	0.46413
28.58333	0.46526
28.58333	0.46478
28.58333	0.46397
28.58333	0.45898
28.58333	0.46606
28.58333	0.46526
28.58333	0.46381
28.58333	0.45753
28.58333	0.45994
28.58333	0.46574
28.58333	0.45914
28.58333	0.45753
28.58333	0.46510
28.58333	0.46333
28.58333	0.46155
28.58333	0.46349
28.58333	0.46993
28.58333	0.45930
28.58333	0.46284
28.58333	0.46252
28.58333	0.45978
28.58333	0.45865
28.58333	0.46413
28.58333	0.46252
28.58333	0.46671
28.58333	0.46478
28.58333	0.46333
28.58333	0.46606
28.58333	0.46010
28.58333	0.46381
28.58333	0.45237
28.58333	0.46349
28.58333	0.48250
28.58333	0.47041
28.58333	0.44657
28.58333	0.46236
28.58333	0.47396
28.58333	0.47493
28.58333	0.46542
28.58333	0.46252
28.58333	0.47364
28.58333	0.46719
28.58333	0.47718
28.58333	0.47009
28.58333	0.47766
28.58333	0.47106
28.58333	0.46526
28.58333	0.46365
28.58333	0.46784
28.58333	0.46735
28.58333	0.46913
28.58333	0.47186
28.58333	0.46832
28.58333	0.46606
28.58333	0.46671
28.58333	0.46945
28.58333	0.46687
28.58333	0.44061
28.56667	0.44673
28.58333	0.53937
28.58333	0.49168
28.58333	0.47460
28.58333	0.53776
28.58333	0.53889